LabVIEW Measurement,
Writer_Version,2
Reader_Version,2
Separator,Comma
Decimal_Separator,.
Multi_Headings,No
X_Columns,One
Time_Pref,Absolute
Operator,alexi
Date,2024/04/19
Time,15:10:39.963423830034649083
***End_of_Header***,
,
Channels,2,,
Samples,2000,2000,
Date,2024/04/19,2024/04/19,
Time,15:10:39.963423830034649083,15:10:39.9634263299372699946,
Y_Unit_Label,Volts,Volts,
X_Dimension,Time,Time,
X0,0.0000000000000000E+0,0.0000000000000000E+0,
Delta_X,5.000000E-6,5.000000E-6,
***End_of_Header***,,,
X_Value,Voltage,Voltage_0,Comment
0.000000,0.190278,-0.658994
5.000000E-6,0.151468,-0.608768
1.000000E-5,0.108417,-0.502446
1.500000E-5,0.067649,-0.345898
2.000000E-5,0.000790,-0.155431
2.500000E-5,-0.062807,0.046776
3.000000E-5,-0.103901,0.245722
3.500000E-5,-0.144669,0.418577
4.000000E-5,-0.177935,0.549686
4.500000E-5,-0.182175,0.627308
5.000000E-5,-0.159997,0.641332
5.500000E-5,-0.139451,0.593063
6.000000E-5,-0.100314,0.484458
6.500000E-5,-0.034433,0.328236
7.000000E-5,0.024599,0.139400
7.500000E-5,0.073194,-0.064764
8.000000E-5,0.124724,-0.262080
8.500000E-5,0.174297,-0.435261
9.000000E-5,0.190278,-0.568653
9.500000E-5,0.190931,-0.645622
1.000000E-4,0.188974,-0.659320
0.000105,0.158969,-0.610399
0.000110,0.105482,-0.503424
0.000115,0.055582,-0.347203
0.000120,0.004052,-0.156736
0.000125,-0.061829,0.046776
0.000130,-0.120208,0.245722
0.000135,-0.144669,0.418251
0.000140,-0.170434,0.551317
0.000145,-0.185763,0.627634
0.000150,-0.165216,0.641658
0.000155,-0.129014,0.592737
0.000160,-0.095095,0.485436
0.000165,-0.046826,0.329541
0.000170,0.027860,0.139726
0.000175,0.078738,-0.063786
0.000180,0.121136,-0.261101
0.000185,0.167448,-0.435261
0.000190,0.196475,-0.568000
0.000195,0.193866,-0.644970
0.000200,0.177885,-0.658994
0.000205,0.163861,-0.610725
0.000210,0.110374,-0.502772
0.000215,0.050690,-0.347203
0.000220,0.002095,-0.156736
0.000225,-0.052371,0.047102
0.000230,-0.114664,0.246375
0.000235,-0.152496,0.418577
0.000240,-0.164237,0.550991
0.000245,-0.179240,0.626982
0.000250,-0.173043,0.642636
0.000255,-0.134232,0.593063
0.000260,-0.088246,0.485762
0.000265,-0.042260,0.328888
0.000270,0.015467,0.139400
0.000275,0.085261,-0.063460
0.000280,0.127659,-0.261754
0.000285,0.160273,-0.434935
0.000290,0.196149,-0.567674
0.000295,0.200715,-0.644317
0.000300,0.179190,-0.659972
0.000305,0.152772,-0.611377
0.000310,0.117875,-0.503750
0.000315,0.054277,-0.347203
0.000320,-0.006711,-0.156410
0.000325,-0.054980,0.046776
0.000330,-0.107163,0.246375
0.000335,-0.152822,0.417925
0.000340,-0.175000,0.550665
0.000345,-0.173043,0.626982
0.000350,-0.168477,0.641658
0.000355,-0.142386,0.592411
0.000360,-0.088573,0.485110
0.000365,-0.038021,0.328562
0.000370,0.015467,0.140053
0.000375,0.074172,-0.064112
0.000380,0.133530,-0.262732
0.000385,0.167448,-0.434608
0.000390,0.182777,-0.568326
0.000395,0.202346,-0.644970
0.000400,0.186365,-0.659972
0.000405,0.149511,-0.611051
0.000410,0.109395,-0.503098
0.000415,0.064388,-0.346550
0.000420,-0.003123,-0.156736
0.000425,-0.067047,0.046776
0.000430,-0.103575,0.245396
0.000435,-0.147278,0.419556
0.000440,-0.178588,0.549360
0.000445,-0.177935,0.627308
0.000450,-0.160650,0.642636
0.000455,-0.137494,0.593389
0.000460,-0.099009,0.485110
0.000465,-0.032150,0.329215
0.000470,0.020033,0.138096
0.000475,0.072867,-0.064438
0.000480,0.130268,-0.262406
0.000485,0.172993,-0.434935
0.000490,0.189626,-0.568000
0.000495,0.192887,-0.645948
0.000500,0.193214,-0.659646
0.000505,0.156360,-0.611377
0.000510,0.104503,-0.504077
0.000515,0.057213,-0.347529
0.000520,0.005030,-0.158041
0.000525,-0.061829,0.046124
0.000530,-0.116621,0.245722
0.000535,-0.140103,0.419230
0.000540,-0.173043,0.550338
0.000545,-0.185763,0.627308
0.000550,-0.163259,0.641658
0.000555,-0.131949,0.593715
0.000560,-0.097378,0.485762
0.000565,-0.042587,0.329541
0.000570,0.026229,0.139726
0.000575,0.074172,-0.064112
0.000580,0.120810,-0.262080
0.000585,0.171036,-0.432652
0.000590,0.193214,-0.568326
0.000595,0.190931,-0.644644
0.000600,0.180168,-0.659646
0.000605,0.160273,-0.611703
0.000610,0.108417,-0.502772
0.000615,0.048733,-0.346876
0.000620,0.001443,-0.156084
0.000625,-0.056937,0.045798
0.000630,-0.113685,0.245070
0.000635,-0.153148,0.418577
0.000640,-0.167173,0.550665
0.000645,-0.181523,0.626003
0.000650,-0.175326,0.642636
0.000655,-0.131623,0.592411
0.000660,-0.090529,0.485110
0.000665,-0.045196,0.328236
0.000670,0.016119,0.139726
0.000675,0.083304,-0.064764
0.000680,0.125702,-0.262732
0.000685,0.157012,-0.434935
0.000690,0.195497,-0.567348
0.000695,0.198758,-0.644970
0.000700,0.177885,-0.659972
0.000705,0.151468,-0.610725
0.000710,0.115918,-0.504077
0.000715,0.054930,-0.346876
0.000720,-0.011603,-0.156736
0.000725,-0.054328,0.046124
0.000730,-0.107815,0.245070
0.000735,-0.155758,0.418251
0.000740,-0.174022,0.550665
0.000745,-0.174348,0.626982
0.000750,-0.168803,0.641984
0.000755,-0.145647,0.593389
0.000760,-0.085963,0.485110
0.000765,-0.038999,0.327584
0.000770,0.012857,0.139400
0.000775,0.076781,-0.065416
0.000780,0.131573,-0.262080
0.000785,0.162882,-0.434608
0.000790,0.183429,-0.568326
0.000795,0.203650,-0.645622
0.000800,0.183756,-0.660298
0.000805,0.147228,-0.610399
0.000810,0.109395,-0.503098
0.000815,0.061779,-0.347855
0.000820,-0.007037,-0.156736
0.000825,-0.066721,0.046776
0.000830,-0.103901,0.246375
0.000835,-0.151192,0.418251
0.000840,-0.184458,0.550338
0.000845,-0.178588,0.626982
0.000850,-0.163259,0.641658
0.000855,-0.143038,0.592411
0.000860,-0.099009,0.485436
0.000865,-0.033455,0.328562
0.000870,0.015467,0.138748
0.000875,0.067323,-0.064112
0.000880,0.130921,-0.262406
0.000885,0.168753,-0.435261
0.000890,0.184408,-0.568653
0.000895,0.191257,-0.644317
0.000900,0.189626,-0.660298
0.000905,0.150163,-0.611377
0.000910,0.101242,-0.503424
0.000915,0.059496,-0.347203
0.000920,0.000138,-0.158041
0.000925,-0.066069,0.046450
0.000930,-0.113359,0.245722
0.000935,-0.144017,0.418903
0.000940,-0.177609,0.550991
0.000945,-0.189350,0.626982
0.000950,-0.162607,0.641658
0.000955,-0.136189,0.593389
0.000960,-0.101618,0.485110
0.000965,-0.041282,0.327584
0.000970,0.022642,0.139074
0.000975,0.070911,-0.064112
0.000980,0.119180,-0.262732
0.000985,0.171362,-0.434935
0.000990,0.188648,-0.568653
0.000995,0.189952,-0.645948
0.001000,0.180820,-0.661277
0.001005,0.157338,-0.610725
0.001010,0.106134,-0.502446
0.001015,0.046124,-0.347529
0.001020,0.002095,-0.156410
0.001025,-0.060198,0.046776
0.001030,-0.117925,0.246049
0.001035,-0.151192,0.418903
0.001040,-0.169782,0.550338
0.001045,-0.186415,0.627308
0.001050,-0.175326,0.641984
0.001055,-0.130645,0.593063
0.001060,-0.095095,0.484784
0.001065,-0.047479,0.328562
0.001070,0.018728,0.138422
0.001075,0.077760,-0.064112
0.001080,0.121136,-0.261427
0.001085,0.158643,-0.435587
0.001090,0.195170,-0.567348
0.001095,0.194518,-0.645622
0.001100,0.175276,-0.659646
0.001105,0.153424,-0.610725
0.001110,0.113635,-0.502772
0.001115,0.050690,-0.347529
0.001120,-0.009646,-0.156736
0.001125,-0.054980,0.045472
0.001130,-0.112381,0.246049
0.001135,-0.159997,0.419556
0.001140,-0.173369,0.550991
0.001145,-0.176957,0.627308
0.001150,-0.174674,0.641984
0.001155,-0.141734,0.592737
0.001160,-0.086616,0.485110
0.001165,-0.042913,0.328888
0.001170,0.007965,0.140053
0.001175,0.079064,-0.065416
0.001180,0.127659,-0.261754
0.001185,0.158643,-0.434935
0.001190,0.185712,-0.568326
0.001195,0.202019,-0.645622
0.001200,0.178863,-0.659320
0.001205,0.143314,-0.610725
0.001210,0.112657,-0.503750
0.001215,0.056234,-0.345898
0.001220,-0.010625,-0.157062
0.001225,-0.061829,0.047102
0.001230,-0.103575,0.245722
0.001235,-0.154779,0.418903
0.001240,-0.183480,0.550665
0.001245,-0.174674,0.627634
0.001250,-0.168803,0.641658
0.001255,-0.147278,0.592411
0.001260,-0.096400,0.485110
0.001265,-0.037368,0.328236
0.001270,0.014162,0.138422
0.001275,0.066671,-0.064438
0.001280,0.130594,-0.262406
0.001285,0.164187,-0.434935
0.001290,0.181146,-0.568326
0.001295,0.192887,-0.644644
0.001300,0.185386,-0.659646
0.001305,0.148206,-0.611377
0.001310,0.099285,-0.502772
0.001315,0.061453,-0.346224
0.001320,-0.005080,-0.156736
0.001325,-0.068026,0.046776
0.001330,-0.112055,0.245722
0.001335,-0.147604,0.418251
0.001340,-0.179892,0.550338
0.001345,-0.187067,0.626982
0.001350,-0.162933,0.641332
0.001355,-0.141734,0.593389
0.001360,-0.101618,0.485110
0.001365,-0.039325,0.328236
0.001370,0.021011,0.140053
0.001375,0.069280,-0.065090
0.001380,0.121463,-0.261754
0.001385,0.172014,-0.435261
0.001390,0.186691,-0.568653
0.001395,0.186691,-0.645622
0.001400,0.183756,-0.658668
0.001405,0.156686,-0.610725
0.001410,0.102220,-0.503750
0.001415,0.050690,-0.347203
0.001420,0.003726,-0.156736
0.001425,-0.064764,0.047102
0.001430,-0.121187,0.247027
0.001435,-0.147278,0.418903
0.001440,-0.175326,0.550338
0.001445,-0.187393,0.626982
0.001450,-0.171086,0.642636
0.001455,-0.132602,0.593715
0.001460,-0.099335,0.485436
0.001465,-0.049762,0.328562
0.001470,0.021989,0.139400
0.001475,0.075803,-0.063786
0.001480,0.117549,-0.262406
0.001485,0.161578,-0.435913
0.001490,0.195170,-0.567674
0.001495,0.188648,-0.645622
0.001500,0.172993,-0.660298
0.001505,0.157990,-0.610725
0.001510,0.106134,-0.502772
0.001515,0.046124,-0.347203
0.001520,-0.002471,-0.156736
0.001525,-0.056611,0.047428
0.001530,-0.119556,0.246049
0.001535,-0.159671,0.418251
0.001540,-0.169782,0.550338
0.001545,-0.184132,0.627308
0.001550,-0.177935,0.642310
0.001555,-0.137820,0.592737
0.001560,-0.092812,0.485110
0.001565,-0.048457,0.328236
0.001570,0.011553,0.139400
0.001575,0.081673,-0.064438
0.001580,0.119832,-0.262406
0.001585,0.157990,-0.435261
0.001590,0.191583,-0.568326
0.001595,0.195497,-0.645296
0.001600,0.174624,-0.659972
0.001605,0.148206,-0.610725
0.001610,0.112983,-0.502120
0.001615,0.047755,-0.346550
0.001620,-0.010299,-0.157714
0.001625,-0.058241,0.047428
0.001630,-0.110750,0.246049
0.001635,-0.158041,0.419230
0.001640,-0.177283,0.550991
0.001645,-0.174674,0.627308
0.001650,-0.174674,0.641658
0.001655,-0.145647,0.593063
0.001660,-0.090203,0.485110
0.001665,-0.041282,0.328236
0.001670,0.010901,0.139726
0.001675,0.074498,-0.064112
0.001680,0.130921,-0.261754
0.001685,0.159947,-0.434935
0.001690,0.183429,-0.568326
0.001695,0.199736,-0.644644
0.001700,0.179516,-0.660298
0.001705,0.145597,-0.610073
0.001710,0.109395,-0.502772
0.001715,0.057865,-0.346550
0.001720,-0.009972,-0.156736
0.001725,-0.064764,0.046776
0.001730,-0.107815,0.246701
0.001735,-0.156736,0.418903
0.001740,-0.179892,0.550012
0.001745,-0.179892,0.626329
0.001750,-0.170108,0.641984
0.001755,-0.144669,0.591432
0.001760,-0.099009,0.484784
0.001765,-0.037694,0.327910
0.001770,0.012205,0.138422
0.001775,0.070258,-0.065416
0.001780,0.127333,-0.262406
0.001785,0.163209,-0.435587
0.001790,0.182777,-0.568326
0.001795,0.192887,-0.644970
0.001800,0.185060,-0.659972
0.001805,0.147554,-0.610725
0.001810,0.106460,-0.504077
0.001815,0.055908,-0.346876
0.001820,-0.006711,-0.157388
0.001825,-0.064764,0.047102
0.001830,-0.115968,0.246375
0.001835,-0.150866,0.418251
0.001840,-0.178261,0.550012
0.001845,-0.184784,0.626982
0.001850,-0.169782,0.641006
0.001855,-0.140755,0.593063
0.001860,-0.097378,0.483806
0.001865,-0.045196,0.327258
0.001870,0.017423,0.138422
0.001875,0.071889,-0.064764
0.001880,0.122115,-0.262732
0.001885,0.164187,-0.435587
0.001890,0.186691,-0.568326
0.001895,0.192887,-0.645622
0.001900,0.178863,-0.659972
0.001905,0.153098,-0.610399
0.001910,0.106786,-0.503098
0.001915,0.052321,-0.347203
0.001920,-0.003450,-0.156410
0.001925,-0.062807,0.046776
0.001930,-0.114990,0.246701
0.001935,-0.150866,0.418903
0.001940,-0.175000,0.550338
0.001945,-0.182501,0.627634
0.001950,-0.169129,0.641006
0.001955,-0.139777,0.593715
0.001960,-0.098031,0.484458
0.001965,-0.041934,0.327910
0.001970,0.016445,0.138748
0.001975,0.074172,-0.063786
0.001980,0.123746,-0.262080
0.001985,0.160600,-0.436565
0.001990,0.188974,-0.568653
0.001995,0.192887,-0.645948
0.002000,0.180820,-0.659646
0.002005,0.151468,-0.611051
0.002010,0.105808,-0.502120
0.002015,0.052321,-0.346550
0.002020,-0.007689,-0.157062
0.002025,-0.063460,0.047102
0.002030,-0.115316,0.246049
0.002035,-0.154127,0.419230
0.002040,-0.176957,0.550665
0.002045,-0.183153,0.627634
0.002050,-0.169782,0.641984
0.002055,-0.142060,0.592737
0.002060,-0.096400,0.484132
0.002065,-0.041282,0.327910
0.002070,0.015467,0.139400
0.002075,0.071889,-0.065090
0.002080,0.123093,-0.263058
0.002085,0.164187,-0.435587
0.002090,0.184408,-0.568979
0.002095,0.194192,-0.644644
0.002100,0.181146,-0.659972
0.002105,0.148532,-0.611703
0.002110,0.107438,-0.502772
0.002115,0.055582,-0.346224
0.002120,-0.005406,-0.157388
0.002125,-0.065416,0.046776
0.002130,-0.112055,0.246049
0.002135,-0.152496,0.417925
0.002140,-0.179892,0.550665
0.002145,-0.185436,0.626982
0.002150,-0.169782,0.641658
0.002155,-0.141734,0.592085
0.002160,-0.098683,0.485110
0.002165,-0.039651,0.327910
0.002170,0.015793,0.139074
0.002175,0.071889,-0.065416
0.002180,0.125376,-0.262732
0.002185,0.162556,-0.435587
0.002190,0.185712,-0.568979
0.002195,0.192887,-0.645622
0.002200,0.179842,-0.659972
0.002205,0.149511,-0.611377
0.002210,0.104177,-0.503424
0.002215,0.053299,-0.346224
0.002220,-0.005733,-0.156736
0.002225,-0.062481,0.047102
0.002230,-0.113033,0.245396
0.002235,-0.151518,0.419882
0.002240,-0.176957,0.550338
0.002245,-0.184784,0.627308
0.002250,-0.169782,0.641658
0.002255,-0.141734,0.592411
0.002260,-0.099009,0.484458
0.002265,-0.044217,0.328888
0.002270,0.016771,0.138748
0.002275,0.071237,-0.065090
0.002280,0.122767,-0.263384
0.002285,0.164839,-0.435261
0.002290,0.186365,-0.568653
0.002295,0.192887,-0.645296
0.002300,0.180494,-0.660298
0.002305,0.149837,-0.610725
0.002310,0.105808,-0.503424
0.002315,0.050038,-0.346224
0.002320,-0.006059,-0.158041
0.002325,-0.063460,0.047102
0.002330,-0.114990,0.246049
0.002335,-0.151518,0.418577
0.002340,-0.174674,0.550991
0.002345,-0.184458,0.626656
0.002350,-0.172065,0.641658
0.002355,-0.139777,0.592411
0.002360,-0.098357,0.483806
0.002365,-0.046500,0.328236
0.002370,0.015467,0.139074
0.002375,0.072867,-0.065090
0.002380,0.120810,-0.263710
0.002385,0.161578,-0.434608
0.002390,0.188974,-0.568326
0.002395,0.194518,-0.644970
0.002400,0.179842,-0.660298
0.002405,0.152120,-0.610725
0.002410,0.107438,-0.502772
0.002415,0.052973,-0.346224
0.002420,-0.007689,-0.157388
0.002425,-0.062481,0.046776
0.002430,-0.114990,0.246701
0.002435,-0.155758,0.419882
0.002440,-0.174674,0.550338
0.002445,-0.182827,0.626982
0.002450,-0.169782,0.641658
0.002455,-0.140429,0.592411
0.002460,-0.095748,0.484458
0.002465,-0.043239,0.327584
0.002470,0.015467,0.138748
0.002475,0.073194,-0.065090
0.002480,0.125050,-0.262406
0.002485,0.160600,-0.434935
0.002490,0.184408,-0.567674
0.002495,0.193540,-0.645296
0.002500,0.180168,-0.659320
0.002505,0.148206,-0.610725
0.002510,0.108091,-0.502772
0.002515,0.053951,-0.346876
0.002520,-0.007363,-0.157062
0.002525,-0.062807,0.048081
0.002530,-0.112055,0.246049
0.002535,-0.153475,0.419230
0.002540,-0.179566,0.550991
0.002545,-0.182827,0.627634
0.002550,-0.173043,0.642310
0.002555,-0.141081,0.592737
0.002560,-0.095421,0.484458
0.002565,-0.042587,0.328236
0.002570,0.015140,0.138422
0.002575,0.072867,-0.065416
0.002580,0.125050,-0.262732
0.002585,0.161904,-0.435913
0.002590,0.185060,-0.568979
0.002595,0.193214,-0.644644
0.002600,0.179842,-0.659972
0.002605,0.149185,-0.610399
0.002610,0.105482,-0.502446
0.002615,0.051342,-0.346224
0.002620,-0.007363,-0.156736
0.002625,-0.064764,0.047428
0.002630,-0.114664,0.246701
0.002635,-0.153148,0.419230
0.002640,-0.177609,0.550665
0.002645,-0.185436,0.627308
0.002650,-0.168803,0.641658
0.002655,-0.140429,0.592411
0.002660,-0.096726,0.484458
0.002665,-0.041934,0.328562
0.002670,0.015793,0.138422
0.002675,0.071889,-0.065743
0.002680,0.120484,-0.262732
0.002685,0.164513,-0.435587
0.002690,0.187017,-0.568979
0.002695,0.191257,-0.645948
0.002700,0.180820,-0.659972
0.002705,0.150815,-0.610725
0.002710,0.103851,-0.503098
0.002715,0.051994,-0.346550
0.002720,-0.004754,-0.155758
0.002725,-0.065090,0.048407
0.002730,-0.115316,0.246049
0.002735,-0.153801,0.419230
0.002740,-0.178914,0.550991
0.002745,-0.184458,0.628286
0.002750,-0.171086,0.641658
0.002755,-0.140429,0.592411
0.002760,-0.097378,0.484458
0.002765,-0.044217,0.328562
0.002770,0.015793,0.138748
0.002775,0.072867,-0.064764
0.002780,0.122767,-0.262732
0.002785,0.161904,-0.435261
0.002790,0.186691,-0.568653
0.002795,0.192235,-0.644317
0.002800,0.178537,-0.659972
0.002805,0.148858,-0.610399
0.002810,0.105482,-0.503424
0.002815,0.050690,-0.347203
0.002820,-0.007689,-0.156736
0.002825,-0.062807,0.046776
0.002830,-0.115968,0.247353
0.002835,-0.155758,0.418903
0.002840,-0.175000,0.550665
0.002845,-0.182175,0.627308
0.002850,-0.171412,0.642310
0.002855,-0.139777,0.592411
0.002860,-0.095748,0.485110
0.002865,-0.042260,0.328236
0.002870,0.014488,0.139074
0.002875,0.073194,-0.064764
0.002880,0.124072,-0.262080
0.002885,0.162556,-0.435261
0.002890,0.187995,-0.568979
0.002895,0.193214,-0.645622
0.002900,0.177885,-0.659646
0.002905,0.149511,-0.610399
0.002910,0.105482,-0.502120
0.002915,0.051342,-0.346224
0.002920,-0.006385,-0.156084
0.002925,-0.062481,0.048081
0.002930,-0.113033,0.246375
0.002935,-0.154779,0.418903
0.002940,-0.178914,0.550338
0.002945,-0.181849,0.627308
0.002950,-0.170434,0.641984
0.002955,-0.140103,0.592085
0.002960,-0.096400,0.485110
0.002965,-0.042587,0.326932
0.002970,0.013836,0.139074
0.002975,0.071237,-0.064112
0.002980,0.125376,-0.262732
0.002985,0.162882,-0.435587
0.002990,0.183429,-0.568653
0.002995,0.193214,-0.644970
0.003000,0.181146,-0.658994
0.003005,0.149511,-0.611377
0.003010,0.103199,-0.503424
0.003015,0.053625,-0.345898
0.003020,-0.007037,-0.156084
0.003025,-0.065416,0.047102
0.003030,-0.113685,0.246701
0.003035,-0.153801,0.418903
0.003040,-0.178261,0.550338
0.003045,-0.184458,0.626982
0.003050,-0.170434,0.642636
0.003055,-0.141081,0.592411
0.003060,-0.098683,0.485110
0.003065,-0.044543,0.327910
0.003070,0.015793,0.139074
0.003075,0.072215,-0.065416
0.003080,0.123093,-0.263058
0.003085,0.164839,-0.435913
0.003090,0.186365,-0.568979
0.003095,0.190931,-0.645948
0.003100,0.181799,-0.659320
0.003105,0.150815,-0.611377
0.003110,0.103525,-0.503750
0.003115,0.050364,-0.345898
0.003120,-0.004428,-0.156410
0.003125,-0.063460,0.047428
0.003130,-0.115642,0.246701
0.003135,-0.153475,0.419230
0.003140,-0.177283,0.549686
0.003145,-0.185436,0.626656
0.003150,-0.171086,0.640680
0.003155,-0.138472,0.592085
0.003160,-0.098357,0.484458
0.003165,-0.043891,0.327910
0.003170,0.014814,0.139074
0.003175,0.071563,-0.065416
0.003180,0.122441,-0.262732
0.003185,0.162882,-0.436565
0.003190,0.186365,-0.569631
0.003195,0.190278,-0.645296
0.003200,0.177233,-0.660298
0.003205,0.151141,-0.610399
0.003210,0.106460,-0.502446
0.003215,0.051016,-0.346224
0.003220,-0.006059,-0.156084
0.003225,-0.064438,0.047428
0.003230,-0.114990,0.246701
0.003235,-0.156410,0.419230
0.003240,-0.177609,0.550338
0.003245,-0.183480,0.627308
0.003250,-0.172391,0.641006
0.003255,-0.140429,0.592085
0.003260,-0.097378,0.484458
0.003265,-0.044543,0.328236
0.003270,0.012857,0.139726
0.003275,0.072867,-0.065090
0.003280,0.122441,-0.263384
0.003285,0.159621,-0.436239
0.003290,0.185060,-0.568979
0.003295,0.191909,-0.646274
0.003300,0.179190,-0.659320
0.003305,0.147554,-0.611377
0.003310,0.107112,-0.503098
0.003315,0.051994,-0.346876
0.003320,-0.009320,-0.156410
0.003325,-0.063786,0.046776
0.003330,-0.114338,0.247679
0.003335,-0.155758,0.418577
0.003340,-0.178261,0.550665
0.003345,-0.180218,0.627634
0.003350,-0.172717,0.641658
0.003355,-0.142712,0.593389
0.003360,-0.096074,0.484458
0.003365,-0.043891,0.327910
0.003370,0.014162,0.138748
0.003375,0.072541,-0.062807
0.003380,0.125050,-0.264037
0.003385,0.161578,-0.436565
0.003390,0.186039,-0.568979
0.003395,0.192887,-0.645296
0.003400,0.180168,-0.659646
0.003405,0.149185,-0.611377
0.003410,0.106134,-0.503424
0.003415,0.053625,-0.346224
0.003420,-0.007037,-0.156410
0.003425,-0.064764,0.046776
0.003430,-0.114990,0.247027
0.003435,-0.153148,0.419230
0.003440,-0.177609,0.551317
0.003445,-0.184132,0.626656
0.003450,-0.170108,0.642310
0.003455,-0.141407,0.593063
0.003460,-0.100640,0.485110
0.003465,-0.042587,0.327910
0.003470,0.014488,0.138748
0.003475,0.069606,-0.065743
0.003480,0.122767,-0.262080
0.003485,0.164513,-0.434935
0.003490,0.183756,-0.568979
0.003495,0.191909,-0.645622
0.003500,0.179842,-0.658994
0.003505,0.146902,-0.610725
0.003510,0.105482,-0.503098
0.003515,0.051994,-0.346876
0.003520,-0.006059,-0.156084
0.003525,-0.063133,0.048407
0.003530,-0.116295,0.246375
0.003535,-0.152822,0.419882
0.003540,-0.179240,0.551317
0.003545,-0.185110,0.627634
0.003550,-0.171086,0.641658
0.003555,-0.140429,0.592085
0.003560,-0.097704,0.484458
0.003565,-0.045196,0.327584
0.003570,0.015467,0.138422
0.003575,0.071237,-0.065090
0.003580,0.122441,-0.263384
0.003585,0.162882,-0.435587
0.003590,0.187343,-0.567674
0.003595,0.191257,-0.645948
0.003600,0.176254,-0.660624
0.003605,0.151794,-0.611377
0.003610,0.105482,-0.502772
0.003615,0.049385,-0.346550
0.003620,-0.005406,-0.156736
0.003625,-0.064438,0.047102
0.003630,-0.116621,0.246701
0.003635,-0.153801,0.419556
0.003640,-0.177609,0.551317
0.003645,-0.185436,0.627634
0.003650,-0.172391,0.641984
0.003655,-0.141407,0.592411
0.003660,-0.098031,0.485110
0.003665,-0.045848,0.326932
0.003670,0.014488,0.138422
0.003675,0.073520,-0.065090
0.003680,0.122441,-0.263384
0.003685,0.159295,-0.435913
0.003690,0.186365,-0.568653
0.003695,0.191909,-0.645296
0.003700,0.177559,-0.660624
0.003705,0.149837,-0.610725
0.003710,0.106786,-0.502772
0.003715,0.050690,-0.346550
0.003720,-0.009320,-0.155758
0.003725,-0.063133,0.048081
0.003730,-0.115968,0.246375
0.003735,-0.156736,0.419882
0.003740,-0.177283,0.550991
0.003745,-0.182501,0.626982
0.003750,-0.172717,0.642636
0.003755,-0.143364,0.592411
0.003760,-0.097052,0.483806
0.003765,-0.045848,0.327258
0.003770,0.013836,0.138096
0.003775,0.072541,-0.065416
0.003780,0.122767,-0.263058
0.003785,0.162556,-0.435587
0.003790,0.183756,-0.568000
0.003795,0.193214,-0.644317
0.003800,0.179842,-0.659646
0.003805,0.148532,-0.610073
0.003810,0.107112,-0.502446
0.003815,0.051994,-0.345898
0.003820,-0.007363,-0.156736
0.003825,-0.065743,0.047755
0.003830,-0.113033,0.246701
0.003835,-0.154779,0.419882
0.003840,-0.179566,0.550991
0.003845,-0.182175,0.627308
0.003850,-0.169782,0.641658
0.003855,-0.140755,0.593389
0.003860,-0.099009,0.484458
0.003865,-0.043565,0.327584
0.003870,0.015793,0.138096
0.003875,0.072215,-0.065743
0.003880,0.124398,-0.262732
0.003885,0.164187,-0.436239
0.003890,0.186039,-0.568326
0.003895,0.188974,-0.646274
0.003900,0.180820,-0.659320
0.003905,0.148858,-0.610399
0.003910,0.104503,-0.502772
0.003915,0.052973,-0.346224
0.003920,-0.007037,-0.155758
0.003925,-0.063460,0.047428
0.003930,-0.115968,0.246701
0.003935,-0.155431,0.419882
0.003940,-0.179240,0.551643
0.003945,-0.185110,0.627308
0.003950,-0.172065,0.641658
0.003955,-0.140429,0.592085
0.003960,-0.098031,0.485110
0.003965,-0.045848,0.327910
0.003970,0.016119,0.136791
0.003975,0.072867,-0.065090
0.003980,0.119180,-0.262732
0.003985,0.162882,-0.435587
0.003990,0.185712,-0.568979
0.003995,0.189626,-0.644970
0.004000,0.179842,-0.659972
0.004005,0.149837,-0.609746
0.004010,0.104177,-0.502446
0.004015,0.050690,-0.346876
0.004020,-0.007689,-0.155758
0.004025,-0.064764,0.047102
0.004030,-0.115642,0.246701
0.004035,-0.155431,0.419882
0.004040,-0.178588,0.551317
0.004045,-0.185110,0.626656
0.004050,-0.174348,0.642310
0.004055,-0.139777,0.591432
0.004060,-0.097704,0.484132
0.004065,-0.046174,0.327910
0.004070,0.015467,0.138096
0.004075,0.072867,-0.066395
0.004080,0.120158,-0.263384
0.004085,0.160926,-0.436565
0.004090,0.187343,-0.568653
0.004095,0.190931,-0.645622
0.004100,0.178211,-0.660951
0.004105,0.149185,-0.609746
0.004110,0.105808,-0.502446
0.004115,0.050038,-0.346224
0.004120,-0.009972,-0.155758
0.004125,-0.062481,0.048733
0.004130,-0.115968,0.246701
0.004135,-0.157388,0.418903
0.004140,-0.178261,0.550338
0.004145,-0.182175,0.626003
0.004150,-0.173043,0.641006
0.004155,-0.144669,0.592411
0.004160,-0.097052,0.485110
0.004165,-0.045196,0.327258
0.004170,0.012205,0.137770
0.004175,0.072215,-0.065090
0.004180,0.122767,-0.264037
0.004185,0.160600,-0.436565
0.004190,0.183103,-0.568979
0.004195,0.191909,-0.645622
0.004200,0.179190,-0.660624
0.004205,0.147228,-0.611377
0.004210,0.104177,-0.503750
0.004215,0.051668,-0.346224
0.004220,-0.008668,-0.156084
0.004225,-0.066721,0.047102
0.004230,-0.115642,0.246375
0.004235,-0.155758,0.419556
0.004240,-0.180544,0.550012
0.004245,-0.184132,0.626656
0.004250,-0.172717,0.641658
0.004255,-0.144343,0.593063
0.004260,-0.099335,0.483806
0.004265,-0.043239,0.326279
0.004270,0.015793,0.138422
0.004275,0.069280,-0.065090
0.004280,0.123093,-0.263384
0.004285,0.161904,-0.437218
0.004290,0.183429,-0.568326
0.004295,0.189300,-0.645622
0.004300,0.179190,-0.660624
0.004305,0.147880,-0.611703
0.004310,0.104829,-0.502772
0.004315,0.052973,-0.345246
0.004320,-0.007037,-0.155758
0.004325,-0.065090,0.048081
0.004330,-0.115316,0.247027
0.004335,-0.154779,0.419882
0.004340,-0.178588,0.549360
0.004345,-0.186089,0.626982
0.004350,-0.173043,0.641658
0.004355,-0.142060,0.592411
0.004360,-0.097704,0.484458
0.004365,-0.045196,0.327258
0.004370,0.014488,0.138422
0.004375,0.070258,-0.064764
0.004380,0.120484,-0.262732
0.004385,0.162230,-0.435913
0.004390,0.184734,-0.568979
0.004395,0.189626,-0.646274
0.004400,0.179190,-0.659646
0.004405,0.150489,-0.610399
0.004410,0.104177,-0.501794
0.004415,0.049385,-0.345572
0.004420,-0.006385,-0.155431
0.004425,-0.065416,0.048407
0.004430,-0.116947,0.246375
0.004435,-0.153148,0.419882
0.004440,-0.179892,0.550665
0.004445,-0.185110,0.627634
0.004450,-0.172391,0.641658
0.004455,-0.140103,0.592085
0.004460,-0.099335,0.484132
0.004465,-0.044543,0.327584
0.004470,0.013510,0.138422
0.004475,0.071237,-0.065743
0.004480,0.121789,-0.263384
0.004485,0.160273,-0.436565
0.004490,0.186039,-0.568979
0.004495,0.190931,-0.645948
0.004500,0.177233,-0.659646
0.004505,0.148532,-0.610399
0.004510,0.105155,-0.502446
0.004515,0.051994,-0.346550
0.004520,-0.007037,-0.156736
0.004525,-0.065090,0.047428
0.004530,-0.114990,0.247353
0.004535,-0.157062,0.419882
0.004540,-0.177283,0.550991
0.004545,-0.183806,0.626656
0.004550,-0.173695,0.641658
0.004555,-0.141081,0.592411
0.004560,-0.093791,0.484458
0.004565,-0.046500,0.327258
0.004570,0.011227,0.137443
0.004575,0.073520,-0.065743
0.004580,0.122767,-0.263058
0.004585,0.161252,-0.436565
0.004590,0.185060,-0.568979
0.004595,0.193214,-0.645622
0.004600,0.178211,-0.659972
0.004605,0.147554,-0.610725
0.004610,0.105808,-0.502120
0.004615,0.051016,-0.345898
0.004620,-0.007363,-0.156084
0.004625,-0.065090,0.047755
0.004630,-0.114012,0.247679
0.004635,-0.155105,0.419882
0.004640,-0.178914,0.551643
0.004645,-0.185110,0.626982
0.004650,-0.172065,0.641984
0.004655,-0.142386,0.591758
0.004660,-0.098031,0.483806
0.004665,-0.043565,0.327584
0.004670,0.012531,0.138422
0.004675,0.069606,-0.065416
0.004680,0.123419,-0.263384
0.004685,0.159295,-0.436565
0.004690,0.182451,-0.569631
0.004695,0.194844,-0.645948
0.004700,0.180494,-0.659320
0.004705,0.145271,-0.610725
0.004710,0.101894,-0.501467
0.004715,0.053951,-0.346550
0.004720,-0.010299,-0.155431
0.004725,-0.067699,0.047755
0.004730,-0.110750,0.247679
0.004735,-0.153148,0.418577
0.004740,-0.182827,0.550991
0.004745,-0.188372,0.627308
0.004750,-0.168151,0.641006
0.004755,-0.143038,0.591758
0.004760,-0.102597,0.483153
0.004765,-0.041608,0.327584
0.004770,0.015793,0.138422
0.004775,0.068301,-0.065416
0.004780,0.117549,-0.263384
0.004785,0.165818,-0.436565
0.004790,0.184082,-0.569631
0.004795,0.186365,-0.645948
0.004800,0.183103,-0.660298
0.004805,0.149837,-0.610399
0.004810,0.100916,-0.503098
0.004815,0.047428,-0.346224
0.004820,-0.001493,-0.155431
0.004825,-0.067373,0.046776
0.004830,-0.119556,0.246701
0.004835,-0.150213,0.419230
0.004840,-0.178261,0.550665
0.004845,-0.188698,0.627308
0.004850,-0.175652,0.641658
0.004855,-0.135863,0.591432
0.004860,-0.101292,0.483479
0.004865,-0.050088,0.327258
0.004870,0.019054,0.138096
0.004875,0.072541,-0.066069
0.004880,0.117875,-0.263710
0.004885,0.159947,-0.436891
0.004890,0.189952,-0.569631
0.004895,0.187017,-0.645622
0.004900,0.174950,-0.659972
0.004905,0.142988,-0.610073
0.004910,0.108743,-0.501467
0.004915,0.049059,-0.346224
0.004920,-0.009972,-0.155758
0.004925,-0.061177,0.048733
0.004930,-0.116621,0.246375
0.004935,-0.159997,0.419556
0.004940,-0.172391,0.550991
0.004945,-0.185436,0.628286
0.004950,-0.175652,0.641984
0.004955,-0.141081,0.591758
0.004960,-0.095095,0.483806
0.004965,-0.047479,0.327584
0.004970,0.011553,0.138096
0.004975,0.076781,-0.065743
0.004980,0.122441,-0.264037
0.004985,0.157664,-0.437218
0.004990,0.185712,-0.568979
0.004995,0.193866,-0.645948
0.005000,0.176254,-0.659646
0.005005,0.143314,-0.610725
0.005010,0.110700,-0.502120
0.005015,0.050690,-0.345572
0.005020,-0.013234,-0.156736
0.005025,-0.062155,0.047102
0.005030,-0.112707,0.247027
0.005035,-0.158367,0.418577
0.005040,-0.183153,0.551643
0.005045,-0.177935,0.626982
0.005050,-0.173369,0.641006
0.005055,-0.146952,0.592085
0.005060,-0.096074,0.484132
0.005065,-0.040956,0.326932
0.005070,0.010901,0.138096
0.005075,0.065692,-0.065743
0.005080,0.125376,-0.264363
0.005085,0.162230,-0.436565
0.005090,0.181799,-0.569305
0.005095,0.193866,-0.645622
0.005100,0.179190,-0.659972
0.005105,0.143640,-0.610725
0.005110,0.099285,-0.502772
0.005115,0.055256,-0.345898
0.005120,-0.009972,-0.156084
0.005125,-0.069656,0.048081
0.005130,-0.112381,0.247679
0.005135,-0.153801,0.418903
0.005140,-0.183480,0.550338
0.005145,-0.189676,0.626982
0.005150,-0.167173,0.642310
0.005155,-0.144995,0.592085
0.005160,-0.103901,0.482501
0.005165,-0.039651,0.327258
0.005170,0.014488,0.137443
0.005175,0.066345,-0.066395
0.005180,0.118527,-0.263710
0.005185,0.165818,-0.437544
0.005190,0.181146,-0.569305
0.005195,0.187017,-0.645622
0.005200,0.183103,-0.659972
0.005205,0.149511,-0.610725
0.005210,0.099937,-0.501794
0.005215,0.048081,-0.345572
0.005220,-0.003123,-0.155758
0.005225,-0.066721,0.048407
0.005230,-0.121187,0.245722
0.005235,-0.149561,0.418903
0.005240,-0.177609,0.551643
0.005245,-0.189350,0.627634
0.005250,-0.172717,0.641658
0.005255,-0.138146,0.591758
0.005260,-0.100640,0.484458
0.005265,-0.049109,0.326932
0.005270,0.021011,0.138422
0.005275,0.071237,-0.066069
0.005280,0.118853,-0.263384
0.005285,0.162882,-0.435913
0.005290,0.188322,-0.569631
0.005295,0.188648,-0.645948
0.005300,0.174624,-0.659320
0.005305,0.156360,-0.609746
0.005310,0.104503,-0.502446
0.005315,0.046124,-0.345246
0.005320,-0.005406,-0.155758
0.005325,-0.062807,0.047102
0.005330,-0.119230,0.247353
0.005335,-0.159019,0.419882
0.005340,-0.171412,0.551317
0.005345,-0.186741,0.627634
0.005350,-0.175978,0.641658
0.005355,-0.140429,0.591432
0.005360,-0.095748,0.484132
0.005365,-0.046826,0.326279
0.005370,0.008291,0.136791
0.005375,0.076781,-0.065090
0.005380,0.121789,-0.264037
0.005385,0.157664,-0.437218
0.005390,0.187017,-0.568979
0.005395,0.191909,-0.645296
0.005400,0.174297,-0.659320
0.005405,0.143966,-0.610725
0.005410,0.112657,-0.501794
0.005415,0.049711,-0.345898
0.005420,-0.011929,-0.156084
0.005425,-0.062807,0.047755
0.005430,-0.114338,0.247027
0.005435,-0.157714,0.420208
0.005440,-0.182827,0.551643
0.005445,-0.178914,0.627308
0.005450,-0.173043,0.641984
0.005455,-0.145973,0.592411
0.005460,-0.095748,0.483806
0.005465,-0.041282,0.327258
0.005470,0.009922,0.137770
0.005475,0.068628,-0.066721
0.005480,0.127333,-0.263710
0.005485,0.160600,-0.436891
0.005490,0.180494,-0.569631
0.005495,0.197127,-0.645948
0.005500,0.180494,-0.659646
0.005505,0.145597,-0.610725
0.005510,0.103199,-0.502120
0.005515,0.056887,-0.345898
0.005520,-0.008994,-0.155431
0.005525,-0.072592,0.047755
0.005530,-0.109446,0.247027
0.005535,-0.153801,0.419230
0.005540,-0.183480,0.550665
0.005545,-0.184784,0.626982
0.005550,-0.166520,0.641984
0.005555,-0.143364,0.592085
0.005560,-0.102597,0.483806
0.005565,-0.038347,0.326932
0.005570,0.013836,0.138096
0.005575,0.066345,-0.066721
0.005580,0.122441,-0.264037
0.005585,0.165818,-0.436239
0.005590,0.182451,-0.569631
0.005595,0.185712,-0.645622
0.005600,0.186691,-0.659646
0.005605,0.147880,-0.610725
0.005610,0.098307,-0.501794
0.005615,0.051668,-0.345572
0.005620,-0.004102,-0.155105
0.005625,-0.069004,0.047755
0.005630,-0.122491,0.246701
0.005635,-0.146300,0.419230
0.005640,-0.177935,0.550991
0.005645,-0.188698,0.626982
0.005650,-0.170108,0.641658
0.005655,-0.137820,0.592085
0.005660,-0.099987,0.484132
0.005665,-0.049109,0.326932
0.005670,0.020685,0.137117
0.005675,0.070911,-0.066721
0.005680,0.117223,-0.262732
0.005685,0.165492,-0.435913
0.005690,0.189626,-0.569631
0.005695,0.188974,-0.646600
0.005700,0.174624,-0.659646
0.005705,0.156360,-0.611377
0.005710,0.103199,-0.502446
0.005715,0.046124,-0.346224
0.005720,-0.003776,-0.155105
0.005725,-0.062481,0.048733
0.005730,-0.120208,0.246375
0.005735,-0.162933,0.419882
0.005740,-0.176631,0.550991
0.005745,-0.186089,0.626656
0.005750,-0.173695,0.641658
0.005755,-0.136189,0.591106
0.005760,-0.096400,0.482827
0.005765,-0.049762,0.326932
0.005770,0.012531,0.139074
0.005775,0.081021,-0.066721
0.005780,0.122441,-0.264363
0.005785,0.155055,-0.437218
0.005790,0.190605,-0.569957
0.005795,0.193866,-0.646274
0.005800,0.175928,-0.660624
0.005805,0.149511,-0.610725
0.005810,0.110700,-0.502446
0.005815,0.048081,-0.345898
0.005820,-0.011929,-0.155431
0.005825,-0.058567,0.047102
0.005830,-0.112707,0.247027
0.005835,-0.157714,0.419882
0.005840,-0.179240,0.550338
0.005845,-0.177609,0.627308
0.005850,-0.171412,0.640680
0.005855,-0.145973,0.592085
0.005860,-0.089877,0.483806
0.005865,-0.042587,0.326932
0.005870,0.010574,0.137117
0.005875,0.073846,-0.065416
0.005880,0.129616,-0.264363
0.005885,0.157012,-0.436891
0.005890,0.183103,-0.570283
0.005895,0.200389,-0.646274
0.005900,0.177233,-0.659320
0.005905,0.146902,-0.610399
0.005910,0.108743,-0.503750
0.005915,0.055256,-0.345898
0.005920,-0.007689,-0.156084
0.005925,-0.069656,0.047428
0.005930,-0.106510,0.246701
0.005935,-0.153801,0.418903
0.005940,-0.182501,0.550338
0.005945,-0.181197,0.626656
0.005950,-0.167499,0.641006
0.005955,-0.143690,0.592411
0.005960,-0.099335,0.484132
0.005965,-0.035085,0.325953
0.005970,0.014162,0.137117
0.005975,0.071563,-0.065743
0.005980,0.126681,-0.262732
0.005985,0.166144,-0.436891
0.005990,0.183429,-0.569631
0.005995,0.189300,-0.645296
0.006000,0.187017,-0.661277
0.006005,0.149837,-0.610399
0.006010,0.101568,-0.502772
0.006015,0.056234,-0.346224
0.006020,-0.004102,-0.155431
0.006025,-0.067373,0.048081
0.006030,-0.116947,0.248005
0.006035,-0.147278,0.418903
0.006040,-0.179240,0.550665
0.006045,-0.187393,0.626656
0.006050,-0.167173,0.641658
0.006055,-0.139451,0.591758
0.006060,-0.098683,0.483806
0.006065,-0.046174,0.327584
0.006070,0.021337,0.137770
0.006075,0.071563,-0.065416
0.006080,0.119180,-0.264689
0.006085,0.168427,-0.436891
0.006090,0.189626,-0.569631
0.006095,0.188648,-0.646274
0.006100,0.177885,-0.660298
0.006105,0.147880,-0.610399
0.006110,0.107112,-0.503098
0.006115,0.046776,-0.346550
0.006120,-0.001819,-0.155758
0.006125,-0.060524,0.048081
0.006130,-0.116947,0.247679
0.006135,-0.155431,0.419882
0.006140,-0.171739,0.550991
0.006145,-0.184458,0.627308
0.006150,-0.176305,0.640680
0.006155,-0.134558,0.592737
0.006160,-0.093791,0.484132
0.006165,-0.046500,0.326605
0.006170,0.016119,0.137443
0.006175,0.077760,-0.066395
0.006180,0.121789,-0.263710
0.006185,0.158317,-0.437870
0.006190,0.194518,-0.569305
0.006195,0.193540,-0.646274
0.006200,0.177233,-0.658668
0.006205,0.149511,-0.610725
0.006210,0.109721,-0.502446
0.006215,0.050690,-0.346550
0.006220,-0.011277,-0.155431
0.006225,-0.055306,0.048733
0.006230,-0.113033,0.247679
0.006235,-0.159019,0.418903
0.006240,-0.175978,0.550991
0.006245,-0.179566,0.626982
0.006250,-0.174022,0.640353
0.006255,-0.144343,0.591758
0.006260,-0.087594,0.483479
0.006265,-0.042587,0.326932
0.006270,0.011879,0.137770
0.006275,0.076129,-0.065743
0.006280,0.125050,-0.264689
0.006285,0.159947,-0.436891
0.006290,0.183103,-0.569957
0.006295,0.199410,-0.645296
0.006300,0.181146,-0.659646
0.006305,0.145923,-0.610073
0.006310,0.109395,-0.502120
0.006315,0.054604,-0.345898
0.006320,-0.009320,-0.155758
0.006325,-0.067047,0.047755
0.006330,-0.108141,0.247679
0.006335,-0.153801,0.418903
0.006340,-0.180218,0.550991
0.006345,-0.178588,0.627308
0.006350,-0.167825,0.641984
0.006355,-0.143038,0.592085
0.006360,-0.099009,0.484132
0.006365,-0.035411,0.326605
0.006370,0.015793,0.137443
0.006375,0.066671,-0.066395
0.006380,0.130268,-0.263710
0.006385,0.163535,-0.435587
0.006390,0.183103,-0.569631
0.006395,0.190278,-0.646600
0.006400,0.186691,-0.659972
0.006405,0.148858,-0.610725
0.006410,0.101568,-0.501141
0.006415,0.058191,-0.345572
0.006420,-0.004754,-0.155758
0.006425,-0.067047,0.048081
0.006430,-0.114990,0.247679
0.006435,-0.148909,0.420208
0.006440,-0.178914,0.551643
0.006445,-0.188046,0.626982
0.006450,-0.162607,0.641658
0.006455,-0.138798,0.592411
0.006460,-0.101292,0.482827
0.006465,-0.043239,0.326605
0.006470,0.020685,0.137443
0.006475,0.071889,-0.066069
0.006480,0.119180,-0.264363
0.006485,0.170710,-0.437218
0.006490,0.187669,-0.570283
0.006495,0.188322,-0.646274
0.006500,0.180168,-0.660624
0.006505,0.153751,-0.610725
0.006510,0.102872,-0.502446
0.006515,0.047755,-0.344593
0.006520,0.001769,-0.155105
0.006525,-0.064764,0.047428
0.006530,-0.117273,0.247353
0.006535,-0.150866,0.420208
0.006540,-0.176305,0.550665
0.006545,-0.185436,0.627308
0.006550,-0.174022,0.641006
0.006555,-0.133580,0.592085
0.006560,-0.097052,0.483153
0.006565,-0.047153,0.326279
0.006570,0.018728,0.137117
0.006575,0.076129,-0.066395
0.006580,0.120484,-0.265015
0.006585,0.159295,-0.436565
0.006590,0.193214,-0.569631
0.006595,0.190605,-0.646274
0.006600,0.176580,-0.660298
0.006605,0.154729,-0.610399
0.006610,0.107438,-0.502120
0.006615,0.050364,-0.345898
0.006620,-0.008994,-0.155758
0.006625,-0.057589,0.048081
0.006630,-0.116621,0.247679
0.006635,-0.157388,0.419556
0.006640,-0.172391,0.550338
0.006645,-0.182827,0.626982
0.006650,-0.171739,0.641658
0.006655,-0.142060,0.592737
0.006660,-0.091182,0.483479
0.006665,-0.043891,0.326279
0.006670,0.011227,0.136791
0.006675,0.078412,-0.066721
0.006680,0.125702,-0.265015
0.006685,0.158969,-0.436239
0.006690,0.186691,-0.568979
0.006695,0.197453,-0.645622
0.006700,0.178211,-0.658994
0.006705,0.147554,-0.611051
0.006710,0.112331,-0.501794
0.006715,0.053951,-0.345246
0.006720,-0.008342,-0.155431
0.006725,-0.063460,0.047755
0.006730,-0.111402,0.246375
0.006735,-0.155105,0.420208
0.006740,-0.181197,0.550991
0.006745,-0.176305,0.627634
0.006750,-0.169782,0.641658
0.006755,-0.143038,0.591758
0.006760,-0.094769,0.483479
0.006765,-0.038999,0.326605
0.006770,0.013836,0.136791
0.006775,0.067975,-0.065416
0.006780,0.129290,-0.264037
0.006785,0.162882,-0.437544
0.006790,0.184082,-0.568979
0.006795,0.196149,-0.645948
0.006800,0.181146,-0.660624
0.006805,0.145597,-0.611051
0.006810,0.102220,-0.502446
0.006815,0.056560,-0.345246
0.006820,-0.007689,-0.155431
0.006825,-0.067699,0.047755
0.006830,-0.111402,0.247027
0.006835,-0.152822,0.419230
0.006840,-0.178588,0.550991
0.006845,-0.188046,0.626982
0.006850,-0.166194,0.641006
0.006855,-0.142386,0.591432
0.006860,-0.100640,0.483479
0.006865,-0.038999,0.326932
0.006870,0.017423,0.136465
0.006875,0.070258,-0.067047
0.006880,0.120158,-0.264689
0.006885,0.166144,-0.435913
0.006890,0.186039,-0.570283
0.006895,0.188974,-0.646274
0.006900,0.184734,-0.660298
0.006905,0.149837,-0.610725
0.006910,0.104503,-0.501794
0.006915,0.050038,-0.346224
0.006920,-0.003123,-0.154127
0.006925,-0.064112,0.047428
0.006930,-0.116621,0.246701
0.006935,-0.149561,0.420208
0.006940,-0.177283,0.550991
0.006945,-0.185436,0.626329
0.006950,-0.173369,0.641332
0.006955,-0.137494,0.591432
0.006960,-0.097052,0.482827
0.006965,-0.046500,0.326279
0.006970,0.021011,0.137443
0.006975,0.075477,-0.067373
0.006980,0.120810,-0.264037
0.006985,0.161578,-0.437218
0.006990,0.188974,-0.570283
0.006995,0.190278,-0.646274
0.007000,0.176254,-0.659320
0.007005,0.154729,-0.610399
0.007010,0.107765,-0.502120
0.007015,0.048407,-0.345572
0.007020,-0.006059,-0.156410
0.007025,-0.059546,0.047755
0.007030,-0.117925,0.246375
0.007035,-0.156736,0.419556
0.007040,-0.171739,0.550991
0.007045,-0.184132,0.627308
0.007050,-0.174674,0.640680
0.007055,-0.139124,0.591432
0.007060,-0.094769,0.482827
0.007065,-0.046500,0.326279
0.007070,0.011553,0.136791
0.007075,0.077107,-0.066395
0.007080,0.122441,-0.265015
0.007085,0.157990,-0.436239
0.007090,0.188648,-0.570609
0.007095,0.194192,-0.646274
0.007100,0.174624,-0.659646
0.007105,0.146249,-0.611377
0.007110,0.112004,-0.502120
0.007115,0.047755,-0.346876
0.007120,-0.010299,-0.155758
0.007125,-0.058567,0.048407
0.007130,-0.114012,0.247679
0.007135,-0.157062,0.420534
0.007140,-0.180871,0.550991
0.007145,-0.179240,0.627960
0.007150,-0.171086,0.641984
0.007155,-0.144995,0.591432
0.007160,-0.094443,0.483806
0.007165,-0.042587,0.327258
0.007170,0.012205,0.136465
0.007175,0.069280,-0.066395
0.007180,0.129616,-0.264037
0.007185,0.162230,-0.437218
0.007190,0.182451,-0.569305
0.007195,0.196475,-0.646600
0.007200,0.181146,-0.659972
0.007205,0.145923,-0.609746
0.007210,0.099937,-0.502772
0.007215,0.059170,-0.344920
0.007220,-0.008994,-0.154779
0.007225,-0.070309,0.048081
0.007230,-0.109446,0.247027
0.007235,-0.152496,0.419882
0.007240,-0.183806,0.550991
0.007245,-0.187067,0.626982
0.007250,-0.164237,0.641006
0.007255,-0.144669,0.592411
0.007260,-0.099009,0.483153
0.007265,-0.039325,0.325953
0.007270,0.016445,0.137117
0.007275,0.068954,-0.066721
0.007280,0.121136,-0.264689
0.007285,0.169405,-0.437218
0.007290,0.183429,-0.569305
0.007295,0.186691,-0.646600
0.007300,0.184734,-0.659320
0.007305,0.152120,-0.610725
0.007310,0.099285,-0.501467
0.007315,0.048733,-0.346224
0.007320,0.000138,-0.155105
0.007325,-0.068678,0.047755
0.007330,-0.123470,0.247027
0.007335,-0.145321,0.419882
0.007340,-0.174022,0.550665
0.007345,-0.188046,0.626982
0.007350,-0.172391,0.641984
0.007355,-0.129992,0.592737
0.007360,-0.099987,0.482501
0.007365,-0.048457,0.325301
0.007370,0.022316,0.136791
0.007375,0.075477,-0.066721
0.007380,0.117223,-0.264363
0.007385,0.161904,-0.437218
0.007390,0.193866,-0.569631
0.007395,0.188974,-0.644970
0.007400,0.173645,-0.659646
0.007405,0.157664,-0.610725
0.007410,0.108091,-0.502446
0.007415,0.047102,-0.346224
0.007420,-0.008342,-0.155105
0.007425,-0.056611,0.048081
0.007430,-0.116621,0.247027
0.007435,-0.161628,0.420534
0.007440,-0.171086,0.552295
0.007445,-0.181849,0.626329
0.007450,-0.177935,0.640680
0.007455,-0.143038,0.590780
0.007460,-0.089551,0.483153
0.007465,-0.047153,0.326932
0.007470,0.007965,0.137117
0.007475,0.079716,-0.067373
0.007480,0.124398,-0.264363
0.007485,0.158317,-0.437218
0.007490,0.183756,-0.569957
0.007495,0.199084,-0.645948
0.007500,0.175602,-0.659972
0.007505,0.142336,-0.610073
0.007510,0.111352,-0.501141
0.007515,0.053625,-0.345898
0.007520,-0.013234,-0.155105
0.007525,-0.065743,0.048407
0.007530,-0.109446,0.247679
0.007535,-0.156736,0.420208
0.007540,-0.185763,0.550991
0.007545,-0.178588,0.627308
0.007550,-0.169456,0.641006
0.007555,-0.146300,0.592411
0.007560,-0.099009,0.483479
0.007565,-0.036716,0.326932
0.007570,0.013184,0.137117
0.007575,0.064388,-0.066069
0.007580,0.128312,-0.263710
0.007585,0.162230,-0.438848
0.007590,0.177559,-0.569631
0.007595,0.190931,-0.645948
0.007600,0.184734,-0.659646
0.007605,0.144945,-0.610399
0.007610,0.098959,-0.501141
0.007615,0.058191,-0.345898
0.007620,-0.007689,-0.155105
0.007625,-0.073244,0.048081
0.007630,-0.114012,0.248332
0.007635,-0.148583,0.420208
0.007640,-0.184784,0.551643
0.007645,-0.189350,0.626656
0.007650,-0.164237,0.641006
0.007655,-0.141734,0.592411
0.007660,-0.105206,0.483806
0.007665,-0.041608,0.326279
0.007670,0.019054,0.136465
0.007675,0.067649,-0.067373
0.007680,0.118527,-0.264689
0.007685,0.169079,-0.439174
0.007690,0.183429,-0.570283
0.007695,0.182451,-0.646274
0.007700,0.183429,-0.660298
0.007705,0.151794,-0.610725
0.007710,0.098633,-0.502446
0.007715,0.048081,-0.345572
0.007720,-0.000188,-0.155105
0.007725,-0.066721,0.048407
0.007730,-0.122491,0.248332
0.007735,-0.151518,0.419230
0.007740,-0.176305,0.551317
0.007745,-0.188372,0.626982
0.007750,-0.174348,0.640680
0.007755,-0.136189,0.591106
0.007760,-0.100640,0.482501
0.007765,-0.052045,0.325953
0.007770,0.017423,0.137117
0.007775,0.072541,-0.066395
0.007780,0.117223,-0.264363
0.007785,0.159295,-0.437544
0.007790,0.191909,-0.570609
0.007795,0.190278,-0.646274
0.007800,0.169731,-0.659320
0.007805,0.153098,-0.611051
0.007810,0.106786,-0.501467
0.007815,0.045145,-0.345246
0.007820,-0.010299,-0.154453
0.007825,-0.059546,0.048733
0.007830,-0.118251,0.247679
0.007835,-0.164890,0.419882
0.007840,-0.174674,0.550665
0.007845,-0.182827,0.626329
0.007850,-0.176631,0.640680
0.007855,-0.144017,0.592085
0.007860,-0.091834,0.483153
0.007865,-0.046174,0.326279
0.007870,0.006335,0.137443
0.007875,0.079716,-0.066395
0.007880,0.124072,-0.264689
0.007885,0.154077,-0.437218
0.007890,0.185386,-0.571262
0.007895,0.196801,-0.646600
0.007900,0.173971,-0.660298
0.007905,0.141683,-0.610073
0.007910,0.111678,-0.502446
0.007915,0.051668,-0.345572
0.007920,-0.015191,-0.155431
0.007925,-0.064438,0.048407
0.007930,-0.110750,0.247027
0.007935,-0.159671,0.420208
0.007940,-0.184132,0.551317
0.007945,-0.175652,0.626329
0.007950,-0.171086,0.641006
0.007955,-0.149561,0.591432
0.007960,-0.095095,0.483153
0.007965,-0.038673,0.326605
0.007970,0.010248,0.137117
0.007975,0.066997,-0.067699
0.007980,0.130268,-0.264363
0.007985,0.161578,-0.436239
0.007990,0.177885,-0.570936
0.007995,0.194192,-0.647253
0.008000,0.181146,-0.659972
0.008005,0.143966,-0.610073
0.008010,0.099937,-0.501794
0.008015,0.057865,-0.344920
0.008020,-0.010299,-0.155105
0.008025,-0.073896,0.048733
0.008030,-0.112707,0.247679
0.008035,-0.152822,0.420208
0.008040,-0.182827,0.550991
0.008045,-0.189024,0.627634
0.008050,-0.162607,0.641658
0.008055,-0.144669,0.591106
0.008060,-0.106184,0.483153
0.008065,-0.038999,0.325953
0.008070,0.016445,0.136791
0.008075,0.065366,-0.068026
0.008080,0.119180,-0.263710
0.008085,0.170710,-0.437870
0.008090,0.182125,-0.570283
0.008095,0.183429,-0.645296
0.008100,0.185060,-0.658994
0.008105,0.150489,-0.610399
0.008110,0.098959,-0.502120
0.008115,0.048733,-0.345572
0.008120,-0.001819,-0.154779
0.008125,-0.067699,0.048733
0.008130,-0.125426,0.247353
0.008135,-0.149561,0.420208
0.008140,-0.176305,0.551317
0.008145,-0.190329,0.627960
0.008150,-0.173043,0.641006
0.008155,-0.134232,0.591758
0.008160,-0.100966,0.483153
0.008165,-0.051066,0.326279
0.008170,0.022968,0.136465
0.008175,0.072867,-0.066395
0.008180,0.115266,-0.264689
0.008185,0.164187,-0.437870
0.008190,0.191257,-0.570609
0.008195,0.185060,-0.645622
0.008200,0.173645,-0.660624
0.008205,0.156360,-0.610073
0.008210,0.103851,-0.500815
0.008215,0.044167,-0.345572
0.008220,-0.006711,-0.154779
0.008225,-0.061177,0.048733
0.008230,-0.118904,0.247679
0.008235,-0.160324,0.420860
0.008240,-0.171086,0.550991
0.008245,-0.184784,0.627308
0.008250,-0.178588,0.641332
0.008255,-0.140429,0.591432
0.008260,-0.094117,0.483153
0.008265,-0.047479,0.325953
0.008270,0.009270,0.137443
0.008275,0.080043,-0.068026
0.008280,0.121463,-0.265015
0.008285,0.154403,-0.437870
0.008290,0.187995,-0.570936
0.008295,0.195170,-0.647253
0.008300,0.172993,-0.659972
0.008305,0.144619,-0.610725
0.008310,0.112004,-0.502446
0.008315,0.049385,-0.345246
0.008320,-0.016495,-0.154779
0.008325,-0.062481,0.048733
0.008330,-0.113033,0.248658
0.008335,-0.158693,0.420860
0.008340,-0.183153,0.550991
0.008345,-0.178914,0.626982
0.008350,-0.172391,0.640353
0.008355,-0.149561,0.592085
0.008360,-0.093465,0.482827
0.008365,-0.040630,0.325953
0.008370,0.009922,0.136465
0.008375,0.068954,-0.067047
0.008380,0.130268,-0.265015
0.008385,0.159947,-0.436891
0.008390,0.176580,-0.568979
0.008395,0.197127,-0.645948
0.008400,0.182451,-0.659320
0.008405,0.143640,-0.610725
0.008410,0.102872,-0.501141
0.008415,0.057539,-0.345898
0.008420,-0.009646,-0.154453
0.008425,-0.074548,0.048407
0.008430,-0.110424,0.248005
0.008435,-0.152170,0.420860
0.008440,-0.184132,0.551969
0.008445,-0.185110,0.627308
0.008450,-0.166520,0.641658
0.008455,-0.142712,0.591106
0.008460,-0.105858,0.482501
0.008465,-0.038347,0.326605
0.008470,0.016771,0.136465
0.008475,0.064714,-0.066395
0.008480,0.123093,-0.265341
0.008485,0.169731,-0.437544
0.008490,0.181473,-0.569305
0.008495,0.184408,-0.645622
0.008500,0.187017,-0.659646
0.008505,0.149185,-0.610399
0.008510,0.097654,-0.501467
0.008515,0.052321,-0.345246
0.008520,-0.001493,-0.154453
0.008525,-0.068678,0.049385
0.008530,-0.120208,0.248005
0.008535,-0.146300,0.420208
0.008540,-0.178261,0.551317
0.008545,-0.190655,0.627960
0.008550,-0.171739,0.641006
0.008555,-0.137820,0.591758
0.008560,-0.101944,0.482501
0.008565,-0.049109,0.326605
0.008570,0.021989,0.137117
0.008575,0.070911,-0.066395
0.008580,0.115918,-0.263710
0.008585,0.164513,-0.436565
0.008590,0.189952,-0.569957
0.008595,0.186039,-0.645296
0.008600,0.173971,-0.659646
0.008605,0.156360,-0.610399
0.008610,0.103199,-0.501467
0.008615,0.043841,-0.344920
0.008620,-0.002797,-0.154779
0.008625,-0.061829,0.049711
0.008630,-0.120208,0.247027
0.008635,-0.157062,0.420208
0.008640,-0.172391,0.551643
0.008645,-0.186741,0.628612
0.008650,-0.179240,0.641006
0.008655,-0.138146,0.591432
0.008660,-0.093791,0.483806
0.008665,-0.049109,0.325627
0.008670,0.012857,0.136791
0.008675,0.078086,-0.067699
0.008680,0.122767,-0.265341
0.008685,0.151141,-0.437544
0.008690,0.192887,-0.569305
0.008695,0.194192,-0.645948
0.008700,0.172014,-0.659972
0.008705,0.147228,-0.610725
0.008710,0.112004,-0.502120
0.008715,0.047755,-0.345898
0.008720,-0.018452,-0.155431
0.008725,-0.057589,0.048407
0.008730,-0.113359,0.248005
0.008735,-0.161302,0.420534
0.008740,-0.179240,0.550991
0.008745,-0.180544,0.627308
0.008750,-0.175000,0.640680
0.008755,-0.149561,0.591106
0.008760,-0.090855,0.482501
0.008765,-0.042260,0.325953
0.008770,0.005682,0.136465
0.008775,0.070911,-0.067699
0.008780,0.129290,-0.264689
0.008785,0.157664,-0.436891
0.008790,0.177233,-0.569957
0.008795,0.199084,-0.645296
0.008800,0.180820,-0.659646
0.008805,0.140705,-0.610399
0.008810,0.107438,-0.502446
0.008815,0.057539,-0.345246
0.008820,-0.013560,-0.154779
0.008825,-0.070309,0.049385
0.008830,-0.106836,0.248005
0.008835,-0.156410,0.420208
0.008840,-0.186741,0.551969
0.008845,-0.180871,0.626003
0.008850,-0.170108,0.641658
0.008855,-0.145647,0.591758
0.008860,-0.101292,0.482501
0.008865,-0.038347,0.325627
0.008870,0.013184,0.136139
0.008875,0.064388,-0.067047
0.008880,0.126029,-0.264363
0.008885,0.165492,-0.437218
0.008890,0.180820,-0.570283
0.008895,0.188648,-0.645622
0.008900,0.186039,-0.659646
0.008905,0.147880,-0.610725
0.008910,0.096350,-0.502120
0.008915,0.055582,-0.344920
0.008920,-0.004102,-0.155105
0.008925,-0.071287,0.049059
0.008930,-0.117925,0.247027
0.008935,-0.147278,0.420860
0.008940,-0.181849,0.550665
0.008945,-0.190655,0.627634
0.008950,-0.164563,0.640353
0.008955,-0.142060,0.591432
0.008960,-0.102923,0.482501
0.008965,-0.043891,0.325953
0.008970,0.019706,0.136465
0.008975,0.070911,-0.067047
0.008980,0.116570,-0.264689
0.008985,0.167448,-0.437870
0.008990,0.187343,-0.569957
0.008995,0.186039,-0.645948
0.009000,0.177233,-0.660298
0.009005,0.153424,-0.610073
0.009010,0.103199,-0.502446
0.009015,0.041884,-0.345246
0.009020,-0.002471,-0.154453
0.009025,-0.063133,0.048081
0.009030,-0.122817,0.248658
0.009035,-0.155105,0.420860
0.009040,-0.172065,0.551643
0.009045,-0.188698,0.626982
0.009050,-0.178261,0.641658
0.009055,-0.132602,0.592085
0.009060,-0.097704,0.482827
0.009065,-0.050088,0.326279
0.009070,0.016771,0.136791
0.009075,0.077433,-0.067047
0.009080,0.120158,-0.264689
0.009085,0.157338,-0.437870
0.009090,0.193866,-0.569957
0.009095,0.192235,-0.646600
0.009100,0.172993,-0.659972
0.009105,0.150163,-0.609746
0.009110,0.110374,-0.501141
0.009115,0.048081,-0.344267
0.009120,-0.012255,-0.155105
0.009125,-0.056611,0.049711
0.009130,-0.114338,0.248658
0.009135,-0.160650,0.420860
0.009140,-0.175652,0.551969
0.009145,-0.178588,0.626982
0.009150,-0.175978,0.641006
0.009155,-0.144669,0.591432
0.009160,-0.088573,0.482827
0.009165,-0.044870,0.326279
0.009170,0.008944,0.136139
0.009175,0.076781,-0.067373
0.009180,0.127007,-0.265341
0.009185,0.157338,-0.437870
0.009190,0.183756,-0.570609
0.009195,0.201041,-0.646274
0.009200,0.177885,-0.659972
0.009205,0.142662,-0.610399
0.009210,0.110048,-0.501141
0.009215,0.053951,-0.344920
0.009220,-0.011929,-0.154127
0.009225,-0.066721,0.049385
0.009230,-0.107163,0.248332
0.009235,-0.154453,0.420534
0.009240,-0.186415,0.551317
0.009245,-0.175978,0.627634
0.009250,-0.168477,0.640353
0.009255,-0.147604,0.591106
0.009260,-0.098031,0.483153
0.009265,-0.037368,0.325953
0.009270,0.015140,0.136465
0.009275,0.065040,-0.067373
0.009280,0.130594,-0.264363
0.009285,0.162556,-0.438196
0.009290,0.182451,-0.570283
0.009295,0.190931,-0.646274
0.009300,0.186691,-0.659646
0.009305,0.147554,-0.611377
0.009310,0.098307,-0.502446
0.009315,0.058843,-0.344593
0.009320,-0.004754,-0.154453
0.009325,-0.069004,0.048407
0.009330,-0.113685,0.248005
0.009335,-0.147930,0.420208
0.009340,-0.180871,0.551969
0.009345,-0.187067,0.626656
0.009350,-0.163259,0.641006
0.009355,-0.138472,0.591758
0.009360,-0.101944,0.482175
0.009365,-0.041934,0.325627
0.009370,0.021989,0.136465
0.009375,0.072541,-0.067373
0.009380,0.118201,-0.265341
0.009385,0.170384,-0.437218
0.009390,0.188322,-0.570609
0.009395,0.186365,-0.645948
0.009400,0.181473,-0.659972
0.009405,0.156686,-0.609420
0.009410,0.102546,-0.501794
0.009415,0.046776,-0.345246
0.009420,0.002095,-0.154779
0.009425,-0.063786,0.050038
0.009430,-0.122817,0.248332
0.009435,-0.150866,0.420534
0.009440,-0.172065,0.551317
0.009445,-0.188372,0.627308
0.009450,-0.172717,0.641984
0.009455,-0.132602,0.591758
0.009460,-0.096400,0.482501
0.009465,-0.050414,0.325301
0.009470,0.021337,0.136791
0.009475,0.076129,-0.068026
0.009480,0.117223,-0.265341
0.009485,0.159947,-0.437870
0.009490,0.194518,-0.570609
0.009495,0.192235,-0.646600
0.009500,0.169405,-0.659646
0.009505,0.156360,-0.609094
0.009510,0.109721,-0.501467
0.009515,0.044819,-0.344593
0.009520,-0.007689,-0.154127
0.009525,-0.054980,0.050364
0.009530,-0.117925,0.248332
0.009535,-0.160976,0.420534
0.009540,-0.169456,0.551317
0.009545,-0.181197,0.626656
0.009550,-0.176631,0.641332
0.009555,-0.138146,0.592411
0.009560,-0.089877,0.483479
0.009565,-0.045522,0.326932
0.009570,0.009270,0.136465
0.009575,0.077107,-0.066721
0.009580,0.128964,-0.263710
0.009585,0.158643,-0.437870
0.009590,0.188648,-0.569957
0.009595,0.200715,-0.646927
0.009600,0.177233,-0.659646
0.009605,0.143966,-0.609420
0.009610,0.114940,-0.501794
0.009615,0.053625,-0.344920
0.009620,-0.011603,-0.154453
0.009625,-0.060198,0.048407
0.009630,-0.108141,0.248658
0.009635,-0.157388,0.420208
0.009640,-0.180871,0.551317
0.009645,-0.172391,0.627634
0.009650,-0.168803,0.641658
0.009655,-0.145647,0.591432
0.009660,-0.092160,0.482827
0.009665,-0.034759,0.325301
0.009670,0.011553,0.135487
0.009675,0.071237,-0.067047
0.009680,0.134834,-0.264689
0.009685,0.163535,-0.438196
0.009690,0.180820,-0.570609
0.009695,0.198758,-0.646600
0.009700,0.185712,-0.660624
0.009705,0.144945,-0.610073
0.009710,0.104503,-0.502120
0.009715,0.061126,-0.344920
0.009720,-0.008668,-0.155105
0.009725,-0.069330,0.049385
0.009730,-0.108141,0.248658
0.009735,-0.150866,0.421186
0.009740,-0.182175,0.551643
0.009745,-0.184132,0.627308
0.009750,-0.161302,0.641658
0.009755,-0.141734,0.591106
0.009760,-0.103249,0.482827
0.009765,-0.034107,0.325953
0.009770,0.019380,0.135487
0.009775,0.066671,-0.067047
0.009780,0.125376,-0.265993
0.009785,0.172341,-0.436891
0.009790,0.182451,-0.570609
0.009795,0.186691,-0.645622
0.009800,0.190931,-0.659320
0.009805,0.151141,-0.609746
0.009810,0.100589,-0.501794
0.009815,0.053951,-0.345572
0.009820,0.001769,-0.154453
0.009825,-0.068026,0.049385
0.009830,-0.119882,0.248658
0.009835,-0.145647,0.421186
0.009840,-0.175652,0.551969
0.009845,-0.187067,0.627308
0.009850,-0.166194,0.641006
0.009855,-0.133580,0.591758
0.009860,-0.099335,0.482501
0.009865,-0.044870,0.324975
0.009870,0.026229,0.136465
0.009875,0.073846,-0.067699
0.009880,0.120484,-0.265015
0.009885,0.168427,-0.437870
0.009890,0.191583,-0.570283
0.009895,0.190278,-0.646274
0.009900,0.176580,-0.659320
0.009905,0.158317,-0.610399
0.009910,0.106786,-0.501141
0.009915,0.046776,-0.343615
0.009920,-0.001493,-0.154453
0.009925,-0.057263,0.049385
0.009930,-0.119556,0.248005
0.009935,-0.156084,0.420534
0.009940,-0.166846,0.551969
0.009945,-0.187067,0.626656
0.009950,-0.175978,0.641006
0.009955,-0.133254,0.592085
0.009960,-0.092812,0.482501
0.009965,-0.046174,0.325627
0.009970,0.018076,0.135487
0.009975,0.083630,-0.068678
0.009980,0.122441,-0.265667
0.009985,0.159947,-0.438522
0.009990,0.193214,-0.570936
0.009995,0.194518,-0.646600
