LabVIEW Measurement,
Writer_Version,2
Reader_Version,2
Separator,Comma
Decimal_Separator,.
Multi_Headings,No
X_Columns,One
Time_Pref,Absolute
Operator,alexi
Date,2024/04/19
Time,15:09:06.9341203300346642562
***End_of_Header***,
,
Channels,2,,
Samples,2000,2000,
Date,2024/04/19,2024/04/19,
Time,15:09:06.9341203300346642562,15:09:06.9341228299372851678,
Y_Unit_Label,Volts,Volts,
X_Dimension,Time,Time,
X0,0.0000000000000000E+0,0.0000000000000000E+0,
Delta_X,5.000000E-6,5.000000E-6,
***End_of_Header***,,,
X_Value,Voltage,Voltage_0,Comment
0.000000,0.102220,-0.146626
5.000000E-6,0.137443,-0.337092
1.000000E-5,0.175602,-0.494619
1.500000E-5,0.200063,-0.605507
2.000000E-5,0.191909,-0.658668
2.500000E-5,0.170058,-0.647579
3.000000E-5,0.140705,-0.572566
3.500000E-5,0.095045,-0.443740
4.000000E-5,0.029491,-0.271212
4.500000E-5,-0.026932,-0.074222
5.000000E-5,-0.074875,0.130268
5.500000E-5,-0.127709,0.321713
6.000000E-5,-0.165868,0.479240
6.500000E-5,-0.177609,0.588171
7.000000E-5,-0.174022,0.640680
7.500000E-5,-0.161954,0.629265
8.000000E-5,-0.127709,0.555557
8.500000E-5,-0.069004,0.425752
9.000000E-5,-0.019104,0.254202
9.500000E-5,0.035035,0.055582
1.000000E-4,0.098959,-0.146952
0.000105,0.148532,-0.337418
0.000110,0.174950,-0.496575
0.000115,0.195823,-0.607463
0.000120,0.199736,-0.659646
0.000125,0.167122,-0.647905
0.000130,0.134182,-0.573545
0.000135,0.095045,-0.444393
0.000140,0.038949,-0.271538
0.000145,-0.030519,-0.073244
0.000150,-0.082702,0.130268
0.000155,-0.121839,0.322692
0.000160,-0.163259,0.478913
0.000165,-0.182501,0.589475
0.000170,-0.174674,0.640680
0.000175,-0.156736,0.630569
0.000180,-0.130319,0.555883
0.000185,-0.074875,0.426731
0.000190,-0.011277,0.253876
0.000195,0.035035,0.056887
0.000200,0.091784,-0.146300
0.000205,0.145271,-0.338723
0.000210,0.175928,-0.495923
0.000215,0.188322,-0.607463
0.000220,0.190931,-0.659320
0.000225,0.177559,-0.646927
0.000230,0.133530,-0.574197
0.000235,0.085261,-0.443740
0.000240,0.035361,-0.270233
0.000245,-0.024649,-0.073244
0.000250,-0.086616,0.130268
0.000255,-0.127709,0.323018
0.000260,-0.156410,0.478587
0.000265,-0.185436,0.589475
0.000270,-0.180871,0.641658
0.000275,-0.155105,0.629591
0.000280,-0.124122,0.556209
0.000285,-0.081071,0.426405
0.000290,-0.019104,0.254528
0.000295,0.043841,0.055908
0.000300,0.089501,-0.147930
0.000305,0.138748,-0.338397
0.000310,0.179190,-0.496249
0.000315,0.191583,-0.607463
0.000320,0.187995,-0.658994
0.000325,0.172993,-0.647253
0.000330,0.142662,-0.573545
0.000335,0.083956,-0.444393
0.000340,0.027860,-0.271538
0.000345,-0.022040,-0.073244
0.000350,-0.082376,0.130594
0.000355,-0.132602,0.322039
0.000360,-0.160650,0.479892
0.000365,-0.173695,0.589475
0.000370,-0.185436,0.641006
0.000375,-0.162933,0.629917
0.000380,-0.117599,0.555231
0.000385,-0.078788,0.427057
0.000390,-0.023670,0.253876
0.000395,0.041884,0.057213
0.000400,0.097980,-0.146626
0.000405,0.136465,-0.337418
0.000410,0.172667,-0.495923
0.000415,0.199736,-0.608116
0.000420,0.188648,-0.658994
0.000425,0.169079,-0.647905
0.000430,0.139074,-0.573219
0.000435,0.092436,-0.444719
0.000440,0.027860,-0.270886
0.000445,-0.027910,-0.074222
0.000450,-0.073244,0.130921
0.000455,-0.130319,0.322692
0.000460,-0.166194,0.479240
0.000465,-0.175000,0.589475
0.000470,-0.176631,0.640680
0.000475,-0.168803,0.630569
0.000480,-0.126731,0.555883
0.000485,-0.070309,0.426079
0.000490,-0.024323,0.253550
0.000495,0.035035,0.056887
0.000500,0.097980,-0.147278
0.000505,0.142336,-0.338397
0.000510,0.169405,-0.495597
0.000515,0.191583,-0.607463
0.000520,0.198106,-0.659646
0.000525,0.168101,-0.647905
0.000530,0.134182,-0.572566
0.000535,0.093088,-0.444393
0.000540,0.033731,-0.271212
0.000545,-0.031498,-0.074222
0.000550,-0.081397,0.130268
0.000555,-0.122817,0.322692
0.000560,-0.167825,0.479892
0.000565,-0.182827,0.589475
0.000570,-0.173695,0.641658
0.000575,-0.158041,0.629917
0.000580,-0.128362,0.556209
0.000585,-0.075527,0.426079
0.000590,-0.014865,0.253550
0.000595,0.033078,0.056234
0.000600,0.090479,-0.147604
0.000605,0.145923,-0.338723
0.000610,0.173971,-0.496575
0.000615,0.186691,-0.606811
0.000620,0.191257,-0.659320
0.000625,0.176580,-0.648557
0.000630,0.130594,-0.573219
0.000635,0.085261,-0.443740
0.000640,0.036666,-0.270559
0.000645,-0.026932,-0.073244
0.000650,-0.085963,0.130268
0.000655,-0.126731,0.321713
0.000660,-0.158367,0.480218
0.000665,-0.187719,0.589149
0.000670,-0.181523,0.641006
0.000675,-0.152822,0.629591
0.000680,-0.128036,0.555883
0.000685,-0.079767,0.425752
0.000690,-0.018778,0.254202
0.000695,0.040906,0.056234
0.000700,0.088522,-0.147278
0.000705,0.139726,-0.338071
0.000710,0.179842,-0.495271
0.000715,0.187343,-0.608768
0.000720,0.191909,-0.657689
0.000725,0.176580,-0.647905
0.000730,0.139074,-0.572566
0.000735,0.081999,-0.443740
0.000740,0.031121,-0.271212
0.000745,-0.016821,-0.072265
0.000750,-0.084333,0.130268
0.000755,-0.131623,0.322039
0.000760,-0.156736,0.479892
0.000765,-0.176305,0.590128
0.000770,-0.185763,0.641006
0.000775,-0.158367,0.630569
0.000780,-0.117273,0.555557
0.000785,-0.079441,0.425752
0.000790,-0.021714,0.253550
0.000795,0.041558,0.056234
0.000800,0.096350,-0.146952
0.000805,0.136139,-0.338723
0.000810,0.174297,-0.495923
0.000815,0.200715,-0.607463
0.000820,0.187995,-0.659646
0.000825,0.170384,-0.648231
0.000830,0.142988,-0.573545
0.000835,0.089501,-0.443740
0.000840,0.028186,-0.271212
0.000845,-0.024649,-0.074222
0.000850,-0.074875,0.130268
0.000855,-0.132602,0.322039
0.000860,-0.164563,0.479892
0.000865,-0.174674,0.588823
0.000870,-0.176957,0.641658
0.000875,-0.163259,0.629917
0.000880,-0.123143,0.555557
0.000885,-0.070309,0.425426
0.000890,-0.023670,0.252898
0.000895,0.034383,0.055256
0.000900,0.099285,-0.147278
0.000905,0.142009,-0.338397
0.000910,0.169731,-0.495923
0.000915,0.194192,-0.607137
0.000920,0.196801,-0.658994
0.000925,0.166796,-0.648883
0.000930,0.134182,-0.573871
0.000935,0.095371,-0.443740
0.000940,0.032752,-0.271212
0.000945,-0.030845,-0.075201
0.000950,-0.080745,0.130268
0.000955,-0.122817,0.321713
0.000960,-0.167173,0.479892
0.000965,-0.182175,0.589475
0.000970,-0.172065,0.641006
0.000975,-0.160650,0.629917
0.000980,-0.128036,0.555883
0.000985,-0.073570,0.426731
0.000990,-0.016495,0.253224
0.000995,0.032752,0.056560
0.001000,0.091784,-0.147604
0.001005,0.147228,-0.338397
0.001010,0.172014,-0.495923
0.001015,0.189626,-0.608116
0.001020,0.195170,-0.659646
0.001025,0.175928,-0.648557
0.001030,0.130268,-0.572892
0.001035,0.086892,-0.443740
0.001040,0.040253,-0.271538
0.001045,-0.029215,-0.073896
0.001050,-0.082376,0.130921
0.001055,-0.124448,0.322366
0.001060,-0.159997,0.480218
0.001065,-0.183480,0.589475
0.001070,-0.177283,0.640680
0.001075,-0.153475,0.629591
0.001080,-0.127709,0.554904
0.001085,-0.078136,0.425100
0.001090,-0.015843,0.253550
0.001095,0.041884,0.056234
0.001100,0.092436,-0.147278
0.001105,0.141683,-0.338723
0.001110,0.182777,-0.496575
0.001115,0.188648,-0.607137
0.001120,0.190278,-0.659320
0.001125,0.177559,-0.648231
0.001130,0.139726,-0.573545
0.001135,0.083630,-0.443088
0.001140,0.034709,-0.270886
0.001145,-0.019431,-0.073896
0.001150,-0.086616,0.131247
0.001155,-0.130645,0.322366
0.001160,-0.158367,0.480544
0.001165,-0.179566,0.589802
0.001170,-0.179892,0.640680
0.001175,-0.157714,0.629591
0.001180,-0.118904,0.555231
0.001185,-0.079767,0.426405
0.001190,-0.020735,0.252898
0.001195,0.042862,0.055908
0.001200,0.092762,-0.147604
0.001205,0.139074,-0.338723
0.001210,0.177233,-0.495923
0.001215,0.196149,-0.606811
0.001220,0.188322,-0.659320
0.001225,0.170058,-0.647905
0.001230,0.143314,-0.572892
0.001235,0.088848,-0.443740
0.001240,0.028838,-0.270559
0.001245,-0.022692,-0.073570
0.001250,-0.074548,0.130594
0.001255,-0.134232,0.323018
0.001260,-0.163911,0.480544
0.001265,-0.173043,0.589475
0.001270,-0.180871,0.641006
0.001275,-0.160976,0.630243
0.001280,-0.119230,0.555557
0.001285,-0.071287,0.426731
0.001290,-0.025301,0.254202
0.001295,0.038296,0.055582
0.001300,0.100589,-0.147930
0.001305,0.138748,-0.338397
0.001310,0.174950,-0.496901
0.001315,0.194844,-0.608116
0.001320,0.195497,-0.659320
0.001325,0.170058,-0.648231
0.001330,0.135160,-0.572566
0.001335,0.094719,-0.444393
0.001340,0.030795,-0.270559
0.001345,-0.028236,-0.074222
0.001350,-0.077810,0.130594
0.001355,-0.125100,0.322366
0.001360,-0.166194,0.479892
0.001365,-0.180218,0.589475
0.001370,-0.170760,0.640680
0.001375,-0.162933,0.629591
0.001380,-0.124122,0.555883
0.001385,-0.072592,0.425752
0.001390,-0.017474,0.253550
0.001395,0.036666,0.056560
0.001400,0.094393,-0.147930
0.001405,0.147228,-0.338397
0.001410,0.172341,-0.495923
0.001415,0.191257,-0.608116
0.001420,0.194844,-0.659320
0.001425,0.174297,-0.648883
0.001430,0.134508,-0.572892
0.001435,0.089501,-0.443740
0.001440,0.039927,-0.270886
0.001445,-0.029541,-0.073244
0.001450,-0.082702,0.130594
0.001455,-0.122165,0.322039
0.001460,-0.161302,0.479892
0.001465,-0.180218,0.589475
0.001470,-0.176957,0.641658
0.001475,-0.154127,0.629917
0.001480,-0.128036,0.554578
0.001485,-0.076505,0.426405
0.001490,-0.013234,0.253550
0.001495,0.038296,0.055256
0.001500,0.093414,-0.147604
0.001505,0.145923,-0.339375
0.001510,0.181473,-0.495923
0.001515,0.186365,-0.607463
0.001520,0.191257,-0.659646
0.001525,0.178863,-0.648231
0.001530,0.136465,-0.573219
0.001535,0.087870,-0.443740
0.001540,0.036014,-0.270886
0.001545,-0.019757,-0.073896
0.001550,-0.085963,0.131247
0.001555,-0.127709,0.322366
0.001560,-0.155758,0.480218
0.001565,-0.180544,0.588823
0.001570,-0.180544,0.641332
0.001575,-0.155431,0.629591
0.001580,-0.119230,0.555231
0.001585,-0.080093,0.426405
0.001590,-0.019757,0.252898
0.001595,0.046450,0.056234
0.001600,0.093741,-0.147930
0.001605,0.139400,-0.339049
0.001610,0.179842,-0.496575
0.001615,0.198432,-0.607463
0.001620,0.186039,-0.660298
0.001625,0.172014,-0.648557
0.001630,0.145271,-0.574197
0.001635,0.086565,-0.443414
0.001640,0.029165,-0.270886
0.001645,-0.020083,-0.074222
0.001650,-0.078136,0.130594
0.001655,-0.132928,0.322039
0.001660,-0.162933,0.479892
0.001665,-0.171739,0.589475
0.001670,-0.179240,0.641006
0.001675,-0.149887,0.628939
0.001680,-0.121839,0.554904
0.001685,-0.068026,0.426079
0.001690,-0.023018,0.252898
0.001695,0.035687,0.056560
0.001700,0.105155,-0.147930
0.001705,0.142662,-0.338397
0.001710,0.168753,-0.496575
0.001715,0.198432,-0.608116
0.001720,0.197780,-0.660298
0.001725,0.165818,-0.648557
0.001730,0.135487,-0.572892
0.001735,0.099611,-0.443088
0.001740,0.031448,-0.270559
0.001745,-0.030193,-0.072918
0.001750,-0.075201,0.131247
0.001755,-0.124448,0.322366
0.001760,-0.165216,0.479892
0.001765,-0.179240,0.588823
0.001770,-0.168803,0.640680
0.001775,-0.159997,0.630569
0.001780,-0.128688,0.554904
0.001785,-0.069330,0.425752
0.001790,-0.015843,0.253876
0.001795,0.035035,0.055908
0.001800,0.096676,-0.147930
0.001805,0.150163,-0.338397
0.001810,0.173645,-0.496901
0.001815,0.188322,-0.607790
0.001820,0.198106,-0.659972
0.001825,0.175928,-0.648557
0.001830,0.135487,-0.573545
0.001835,0.089175,-0.444067
0.001840,0.043189,-0.270559
0.001845,-0.027584,-0.073570
0.001850,-0.087920,0.130921
0.001855,-0.121513,0.322692
0.001860,-0.158367,0.478913
0.001865,-0.184458,0.589475
0.001870,-0.176957,0.641658
0.001875,-0.150213,0.631221
0.001880,-0.124122,0.554904
0.001885,-0.079441,0.426079
0.001890,-0.013234,0.253224
0.001895,0.044167,0.056560
0.001900,0.092110,-0.146626
0.001905,0.141357,-0.338723
0.001910,0.184408,-0.495923
0.001915,0.192887,-0.608116
0.001920,0.186691,-0.659320
0.001925,0.179842,-0.648557
0.001930,0.142009,-0.572892
0.001935,0.085587,-0.443414
0.001940,0.035035,-0.270233
0.001945,-0.017800,-0.073244
0.001950,-0.083354,0.130921
0.001955,-0.131297,0.322692
0.001960,-0.153475,0.479892
0.001965,-0.175978,0.589475
0.001970,-0.181849,0.641006
0.001975,-0.154779,0.629591
0.001980,-0.114664,0.555557
0.001985,-0.075527,0.426079
0.001990,-0.021061,0.253550
0.001995,0.049385,0.055582
0.002000,0.098959,-0.147604
0.002005,0.136139,-0.338723
0.002010,0.178863,-0.496901
0.002015,0.201367,-0.607463
0.002020,0.191257,-0.658668
0.002025,0.172667,-0.648231
0.002030,0.148206,-0.572892
0.002035,0.092110,-0.443088
0.002040,0.029165,-0.269907
0.002045,-0.019757,-0.072918
0.002050,-0.073570,0.130594
0.002055,-0.129666,0.323018
0.002060,-0.161954,0.479892
0.002065,-0.168477,0.590454
0.002070,-0.174674,0.641006
0.002075,-0.162607,0.630569
0.002080,-0.117273,0.555557
0.002085,-0.068026,0.426079
0.002090,-0.019757,0.253224
0.002095,0.039275,0.055582
0.002100,0.105155,-0.147604
0.002105,0.144619,-0.338723
0.002110,0.171362,-0.495271
0.002115,0.200715,-0.607790
0.002120,0.198106,-0.658994
0.002125,0.170058,-0.648231
0.002130,0.138096,-0.572566
0.002135,0.098307,-0.443414
0.002140,0.034057,-0.270886
0.002145,-0.028236,-0.072592
0.002150,-0.074222,0.132877
0.002155,-0.122491,0.322692
0.002160,-0.163585,0.480544
0.002165,-0.180218,0.590128
0.002170,-0.168803,0.641658
0.002175,-0.156736,0.629591
0.002180,-0.128688,0.554904
0.002185,-0.069330,0.426079
0.002190,-0.014865,0.253876
0.002195,0.036340,0.055908
0.002200,0.096676,-0.148909
0.002205,0.151468,-0.338397
0.002210,0.177885,-0.496249
0.002215,0.187995,-0.607137
0.002220,0.198758,-0.659320
0.002225,0.177233,-0.647253
0.002230,0.132877,-0.573219
0.002235,0.091458,-0.442110
0.002240,0.042210,-0.270233
0.002245,-0.024649,-0.072918
0.002250,-0.085311,0.130594
0.002255,-0.118578,0.322039
0.002260,-0.156736,0.479892
0.002265,-0.184784,0.590128
0.002270,-0.175326,0.641658
0.002275,-0.149561,0.629917
0.002280,-0.123796,0.554252
0.002285,-0.076505,0.425752
0.002290,-0.006385,0.252898
0.002295,0.044167,0.055582
0.002300,0.090805,-0.148256
0.002305,0.146249,-0.338723
0.002310,0.183429,-0.496901
0.002315,0.191257,-0.607463
0.002320,0.190605,-0.659320
0.002325,0.184082,-0.647253
0.002330,0.142009,-0.572892
0.002335,0.084609,-0.443740
0.002340,0.037644,-0.271212
0.002345,-0.017800,-0.073244
0.002350,-0.082050,0.130921
0.002355,-0.129666,0.322366
0.002360,-0.148909,0.480870
0.002365,-0.176631,0.589475
0.002370,-0.183480,0.641658
0.002375,-0.153148,0.629591
0.002380,-0.117273,0.555557
0.002385,-0.078136,0.425426
0.002390,-0.019757,0.253224
0.002395,0.052321,0.055582
0.002400,0.096024,-0.148583
0.002405,0.138748,-0.338397
0.002410,0.183756,-0.496575
0.002415,0.198432,-0.607790
0.002420,0.188322,-0.659646
0.002425,0.173645,-0.648883
0.002430,0.147228,-0.572892
0.002435,0.090153,-0.442762
0.002440,0.028512,-0.271212
0.002445,-0.019757,-0.072918
0.002450,-0.076505,0.130594
0.002455,-0.129340,0.323018
0.002460,-0.159997,0.480218
0.002465,-0.169782,0.589475
0.002470,-0.175326,0.641658
0.002475,-0.162933,0.629265
0.002480,-0.116295,0.555557
0.002485,-0.070961,0.425100
0.002490,-0.021061,0.254202
0.002495,0.041884,0.054604
0.002500,0.105155,-0.148583
0.002505,0.144619,-0.339375
0.002510,0.170710,-0.495271
0.002515,0.202346,-0.606811
0.002520,0.197780,-0.659646
0.002525,0.169079,-0.648557
0.002530,0.138096,-0.573545
0.002535,0.099285,-0.442110
0.002540,0.035035,-0.270886
0.002545,-0.030193,-0.073896
0.002550,-0.071939,0.130594
0.002555,-0.124122,0.322039
0.002560,-0.164890,0.479892
0.002565,-0.175000,0.589475
0.002570,-0.168477,0.641658
0.002575,-0.159019,0.629917
0.002580,-0.126731,0.555557
0.002585,-0.063786,0.424774
0.002590,-0.016169,0.252898
0.002595,0.034057,0.055582
0.002600,0.100263,-0.149235
0.002605,0.150815,-0.339049
0.002610,0.174950,-0.496575
0.002615,0.190931,-0.607463
0.002620,0.201367,-0.659972
0.002625,0.175602,-0.648231
0.002630,0.133204,-0.573545
0.002635,0.094393,-0.443740
0.002640,0.040906,-0.270559
0.002645,-0.026932,-0.073570
0.002650,-0.083680,0.130594
0.002655,-0.118904,0.322692
0.002660,-0.158693,0.481196
0.002665,-0.185110,0.589149
0.002670,-0.173369,0.641658
0.002675,-0.150539,0.629917
0.002680,-0.127057,0.554904
0.002685,-0.077158,0.425100
0.002690,-0.008668,0.252898
0.002695,0.041232,0.055256
0.002700,0.090479,-0.147604
0.002705,0.148858,-0.339375
0.002710,0.181799,-0.496901
0.002715,0.191909,-0.608116
0.002720,0.192561,-0.659646
0.002725,0.183429,-0.648231
0.002730,0.137443,-0.572892
0.002735,0.083630,-0.443740
0.002740,0.038949,-0.270233
0.002745,-0.019757,-0.073570
0.002750,-0.083028,0.131247
0.002755,-0.127709,0.323018
0.002760,-0.153148,0.480544
0.002765,-0.177609,0.590128
0.002770,-0.184132,0.641006
0.002775,-0.150539,0.628939
0.002780,-0.118578,0.554904
0.002785,-0.077810,0.425100
0.002790,-0.018452,0.252245
0.002795,0.049059,0.055582
0.002800,0.096350,-0.147604
0.002805,0.135813,-0.339049
0.002810,0.185712,-0.495597
0.002815,0.198106,-0.608116
0.002820,0.187669,-0.659320
0.002825,0.172993,-0.647253
0.002830,0.144292,-0.573871
0.002835,0.087870,-0.443740
0.002840,0.028838,-0.269907
0.002845,-0.015517,-0.072918
0.002850,-0.077158,0.130594
0.002855,-0.131949,0.322692
0.002860,-0.159671,0.479892
0.002865,-0.169456,0.589475
0.002870,-0.178914,0.641658
0.002875,-0.163585,0.629917
0.002880,-0.113033,0.554904
0.002885,-0.073570,0.425100
0.002890,-0.024323,0.253224
0.002895,0.044167,0.055256
0.002900,0.102872,-0.148583
0.002905,0.140705,-0.338071
0.002910,0.172667,-0.496575
0.002915,0.206259,-0.608116
0.002920,0.197127,-0.658994
0.002925,0.166796,-0.647253
0.002930,0.143640,-0.572566
0.002935,0.098307,-0.443414
0.002940,0.030469,-0.271538
0.002945,-0.026606,-0.072592
0.002950,-0.070309,0.131573
0.002955,-0.127383,0.322039
0.002960,-0.168803,0.478587
0.002965,-0.177283,0.589802
0.002970,-0.169456,0.641658
0.002975,-0.160976,0.629591
0.002980,-0.122165,0.555883
0.002985,-0.063786,0.426405
0.002990,-0.017148,0.253224
0.002995,0.034709,0.055908
0.003000,0.103199,-0.147930
0.003005,0.148532,-0.339701
0.003010,0.172341,-0.496249
0.003015,0.194844,-0.608116
0.003020,0.201367,-0.659972
0.003025,0.174950,-0.647579
0.003030,0.132877,-0.572892
0.003035,0.097980,-0.443414
0.003040,0.038296,-0.270233
0.003045,-0.028562,-0.072918
0.003050,-0.079441,0.130921
0.003055,-0.118904,0.323670
0.003060,-0.160650,0.480544
0.003065,-0.182827,0.590128
0.003070,-0.168477,0.641658
0.003075,-0.155758,0.630569
0.003080,-0.127709,0.555231
0.003085,-0.075201,0.424774
0.003090,-0.008994,0.252245
0.003095,0.039927,0.056234
0.003100,0.090805,-0.148909
0.003105,0.151468,-0.338723
0.003110,0.176907,-0.495923
0.003115,0.190278,-0.607137
0.003120,0.196149,-0.659646
0.003125,0.179190,-0.647579
0.003130,0.135487,-0.573219
0.003135,0.085261,-0.442762
0.003140,0.041558,-0.271538
0.003145,-0.022366,-0.072918
0.003150,-0.083028,0.131573
0.003155,-0.124448,0.323344
0.003160,-0.155105,0.480870
0.003165,-0.179240,0.589475
0.003170,-0.178914,0.641006
0.003175,-0.149235,0.629917
0.003180,-0.119556,0.554904
0.003185,-0.079114,0.425426
0.003190,-0.015191,0.253224
0.003195,0.046124,0.054604
0.003200,0.094393,-0.148256
0.003205,0.140379,-0.339049
0.003210,0.186365,-0.496901
0.003215,0.196801,-0.608116
0.003220,0.189300,-0.659320
0.003225,0.177885,-0.648883
0.003230,0.143966,-0.572892
0.003235,0.087218,-0.443414
0.003240,0.032426,-0.269907
0.003245,-0.016495,-0.072918
0.003250,-0.077484,0.131573
0.003255,-0.132602,0.323344
0.003260,-0.156084,0.479566
0.003265,-0.174022,0.589475
0.003270,-0.180218,0.640353
0.003275,-0.159671,0.629265
0.003280,-0.114012,0.554904
0.003285,-0.073570,0.426079
0.003290,-0.023670,0.252898
0.003295,0.048081,0.055582
0.003300,0.100916,-0.148583
0.003305,0.139074,-0.339701
0.003310,0.175276,-0.496249
0.003315,0.203324,-0.608116
0.003320,0.192887,-0.658994
0.003325,0.167122,-0.647253
0.003330,0.145923,-0.573219
0.003335,0.093741,-0.443088
0.003340,0.030143,-0.269907
0.003345,-0.024323,-0.072592
0.003350,-0.071613,0.131247
0.003355,-0.129014,0.323344
0.003360,-0.168151,0.480218
0.003365,-0.171739,0.588823
0.003370,-0.174674,0.641006
0.003375,-0.162280,0.628939
0.003380,-0.122491,0.554578
0.003385,-0.066721,0.426079
0.003390,-0.018778,0.252245
0.003395,0.033404,0.055908
0.003400,0.105155,-0.148583
0.003405,0.145923,-0.340027
0.003410,0.170710,-0.496901
0.003415,0.195497,-0.608116
0.003420,0.200715,-0.658341
0.003425,0.170384,-0.648557
0.003430,0.132877,-0.572892
0.003435,0.099285,-0.443740
0.003440,0.035361,-0.270559
0.003445,-0.028889,-0.072592
0.003450,-0.078136,0.132225
0.003455,-0.121513,0.323018
0.003460,-0.161954,0.480544
0.003465,-0.181523,0.588823
0.003470,-0.169129,0.641006
0.003475,-0.154453,0.629917
0.003480,-0.127057,0.554904
0.003485,-0.072592,0.425752
0.003490,-0.012255,0.252898
0.003495,0.040253,0.054277
0.003500,0.090805,-0.148256
0.003505,0.152446,-0.339049
0.003510,0.178863,-0.497554
0.003515,0.187669,-0.607463
0.003520,0.196475,-0.659320
0.003525,0.178211,-0.648231
0.003530,0.135487,-0.572892
0.003535,0.085587,-0.443414
0.003540,0.042210,-0.271212
0.003545,-0.024323,-0.073244
0.003550,-0.086290,0.131899
0.003555,-0.124122,0.323996
0.003560,-0.158693,0.480544
0.003565,-0.182501,0.590128
0.003570,-0.178588,0.641658
0.003575,-0.151192,0.630243
0.003580,-0.121839,0.554904
0.003585,-0.082376,0.425100
0.003590,-0.012582,0.253550
0.003595,0.042536,0.055582
0.003600,0.093414,-0.147604
0.003605,0.139074,-0.339701
0.003610,0.183429,-0.496901
0.003615,0.192887,-0.607790
0.003620,0.184734,-0.660298
0.003625,0.180168,-0.647253
0.003630,0.142662,-0.572566
0.003635,0.083630,-0.443088
0.003640,0.031774,-0.270886
0.003645,-0.017148,-0.072265
0.003650,-0.081071,0.132225
0.003655,-0.134885,0.323670
0.003660,-0.155105,0.479566
0.003665,-0.175000,0.589802
0.003670,-0.184132,0.640680
0.003675,-0.158367,0.629591
0.003680,-0.115968,0.554904
0.003685,-0.077484,0.425100
0.003690,-0.025627,0.253876
0.003695,0.047755,0.053951
0.003700,0.097654,-0.148256
0.003705,0.136139,-0.338723
0.003710,0.177885,-0.497228
0.003715,0.199084,-0.607137
0.003720,0.187995,-0.658994
0.003725,0.167448,-0.647253
0.003730,0.146902,-0.572892
0.003735,0.089827,-0.443414
0.003740,0.026555,-0.269907
0.003745,-0.021061,-0.071939
0.003750,-0.075527,0.131899
0.003755,-0.131297,0.323344
0.003760,-0.164563,0.480544
0.003765,-0.170434,0.589475
0.003770,-0.177609,0.641658
0.003775,-0.163585,0.629917
0.003780,-0.118578,0.554252
0.003785,-0.068678,0.427057
0.003790,-0.023344,0.252898
0.003795,0.036666,0.055256
0.003800,0.104503,-0.148583
0.003805,0.141357,-0.339375
0.003810,0.169731,-0.497554
0.003815,0.198106,-0.608116
0.003820,0.195823,-0.659972
0.003825,0.168101,-0.646600
0.003830,0.136139,-0.572892
0.003835,0.096024,-0.442762
0.003840,0.031448,-0.269907
0.003845,-0.031498,-0.072265
0.003850,-0.075527,0.131573
0.003855,-0.125426,0.323996
0.003860,-0.165542,0.480544
0.003865,-0.179892,0.590780
0.003870,-0.171086,0.640680
0.003875,-0.158041,0.629917
0.003880,-0.130645,0.555231
0.003885,-0.069982,0.424774
0.003890,-0.015191,0.252245
0.003895,0.032752,0.054930
0.003900,0.093088,-0.148256
0.003905,0.150163,-0.339049
0.003910,0.173319,-0.497554
0.003915,0.185386,-0.607463
0.003920,0.198106,-0.658341
0.003925,0.173971,-0.647905
0.003930,0.131573,-0.572566
0.003935,0.089827,-0.443088
0.003940,0.039275,-0.269581
0.003945,-0.027584,-0.072592
0.003950,-0.087268,0.132225
0.003955,-0.120860,0.323018
0.003960,-0.160324,0.480544
0.003965,-0.185436,0.589475
0.003970,-0.178914,0.642310
0.003975,-0.153148,0.629917
0.003980,-0.126731,0.555231
0.003985,-0.082376,0.427057
0.003990,-0.011603,0.252245
0.003995,0.040253,0.055256
0.004000,0.087870,-0.148583
0.004005,0.142988,-0.339375
0.004010,0.180494,-0.496901
0.004015,0.187669,-0.606811
0.004020,0.186039,-0.658341
0.004025,0.181799,-0.648557
0.004030,0.137443,-0.572566
0.004035,0.081673,-0.443088
0.004040,0.036014,-0.269907
0.004045,-0.019757,-0.071613
0.004050,-0.086942,0.131899
0.004055,-0.132602,0.323670
0.004060,-0.153801,0.480218
0.004065,-0.181197,0.589802
0.004070,-0.185763,0.641006
0.004075,-0.155105,0.628939
0.004080,-0.120860,0.555231
0.004085,-0.081724,0.425100
0.004090,-0.022366,0.252898
0.004095,0.047755,0.054604
0.004100,0.092762,-0.148583
0.004105,0.135160,-0.340027
0.004110,0.179842,-0.495597
0.004115,0.194518,-0.609094
0.004120,0.186365,-0.659646
0.004125,0.169405,-0.648231
0.004130,0.144945,-0.572566
0.004135,0.086892,-0.443414
0.004140,0.025903,-0.270559
0.004145,-0.019757,-0.072592
0.004150,-0.078462,0.131247
0.004155,-0.134558,0.323670
0.004160,-0.163259,0.479892
0.004165,-0.172065,0.590780
0.004170,-0.184132,0.641658
0.004175,-0.166194,0.629591
0.004180,-0.116621,0.555557
0.004185,-0.074875,0.425100
0.004190,-0.026932,0.252245
0.004195,0.038949,0.055256
0.004200,0.101568,-0.148583
0.004205,0.138096,-0.340027
0.004210,0.169405,-0.495271
0.004215,0.200715,-0.607790
0.004220,0.192235,-0.659646
0.004225,0.164839,-0.647579
0.004230,0.136791,-0.572892
0.004235,0.094393,-0.442110
0.004240,0.025251,-0.269581
0.004245,-0.034433,-0.072592
0.004250,-0.074548,0.131899
0.004255,-0.130971,0.323344
0.004260,-0.168803,0.480218
0.004265,-0.175652,0.589149
0.004270,-0.174348,0.641984
0.004275,-0.165868,0.629917
0.004280,-0.128688,0.554578
0.004285,-0.067373,0.425426
0.004290,-0.023344,0.251593
0.004295,0.031774,0.054930
0.004300,0.100589,-0.149235
0.004305,0.144619,-0.340027
0.004310,0.168101,-0.497228
0.004315,0.191257,-0.607463
0.004320,0.201693,-0.659646
0.004325,0.166144,-0.648231
0.004330,0.131899,-0.572566
0.004335,0.094067,-0.442762
0.004340,0.032100,-0.269907
0.004345,-0.031172,-0.073244
0.004350,-0.081397,0.132225
0.004355,-0.122165,0.323344
0.004360,-0.168151,0.481196
0.004365,-0.184132,0.590128
0.004370,-0.174022,0.641658
0.004375,-0.158367,0.629591
0.004380,-0.127383,0.555557
0.004385,-0.075201,0.425100
0.004390,-0.013234,0.252571
0.004395,0.033731,0.054604
0.004400,0.091131,-0.148909
0.004405,0.148532,-0.339701
0.004410,0.173319,-0.496249
0.004415,0.188322,-0.607790
0.004420,0.194192,-0.659646
0.004425,0.176254,-0.648231
0.004430,0.133204,-0.572892
0.004435,0.084609,-0.443414
0.004440,0.036666,-0.270559
0.004445,-0.028562,-0.072592
0.004450,-0.084007,0.131573
0.004455,-0.126405,0.323996
0.004460,-0.157388,0.479892
0.004465,-0.184458,0.590128
0.004470,-0.181197,0.641658
0.004475,-0.154127,0.628612
0.004480,-0.127383,0.554904
0.004485,-0.079767,0.424774
0.004490,-0.016821,0.253550
0.004495,0.040906,0.054277
0.004500,0.092110,-0.148909
0.004505,0.138748,-0.339375
0.004510,0.179190,-0.497228
0.004515,0.188322,-0.608116
0.004520,0.187669,-0.659646
0.004525,0.175276,-0.647253
0.004530,0.136465,-0.573871
0.004535,0.085261,-0.443088
0.004540,0.030469,-0.270886
0.004545,-0.021387,-0.072918
0.004550,-0.085637,0.131573
0.004555,-0.131949,0.323344
0.004560,-0.161628,0.481196
0.004565,-0.181849,0.589475
0.004570,-0.182827,0.641006
0.004575,-0.159997,0.629917
0.004580,-0.120208,0.553926
0.004585,-0.078462,0.424448
0.004590,-0.021714,0.252245
0.004595,0.039927,0.054604
0.004600,0.094067,-0.150213
0.004605,0.139726,-0.340354
0.004610,0.175276,-0.497554
0.004615,0.192887,-0.608442
0.004620,0.189952,-0.658668
0.004625,0.170710,-0.648557
0.004630,0.137770,-0.573219
0.004635,0.088196,-0.443088
0.004640,0.032752,-0.270233
0.004645,-0.026280,-0.072918
0.004650,-0.081071,0.131247
0.004655,-0.128688,0.323670
0.004660,-0.163585,0.480870
0.004665,-0.179566,0.589475
0.004670,-0.180218,0.641658
0.004675,-0.160324,0.629591
0.004680,-0.123796,0.554252
0.004685,-0.075527,0.425100
0.004690,-0.019757,0.252898
0.004695,0.038949,0.054277
0.004700,0.095371,-0.148583
0.004705,0.142009,-0.340027
0.004710,0.172014,-0.497554
0.004715,0.191257,-0.607463
0.004720,0.189952,-0.659972
0.004725,0.171036,-0.648883
0.004730,0.134182,-0.572892
0.004735,0.088848,-0.443414
0.004740,0.031448,-0.270559
0.004745,-0.028562,-0.072592
0.004750,-0.081397,0.131247
0.004755,-0.128688,0.324322
0.004760,-0.161954,0.479892
0.004765,-0.182501,0.589475
0.004770,-0.179240,0.640680
0.004775,-0.159019,0.629591
0.004780,-0.126731,0.554578
0.004785,-0.075201,0.425100
0.004790,-0.018778,0.252898
0.004795,0.037318,0.053951
0.004800,0.092436,-0.148583
0.004805,0.143966,-0.339701
0.004810,0.174297,-0.497554
0.004815,0.188648,-0.608116
0.004820,0.191909,-0.658994
0.004825,0.171362,-0.647905
0.004830,0.135813,-0.573545
0.004835,0.085913,-0.442762
0.004840,0.033078,-0.269581
0.004845,-0.027258,-0.072918
0.004850,-0.084007,0.131573
0.004855,-0.127709,0.323344
0.004860,-0.161954,0.480218
0.004865,-0.180871,0.589475
0.004870,-0.180218,0.640680
0.004875,-0.158041,0.629265
0.004880,-0.124448,0.555231
0.004885,-0.076505,0.426079
0.004890,-0.018452,0.251919
0.004895,0.039601,0.055908
0.004900,0.095045,-0.149235
0.004905,0.142662,-0.340354
0.004910,0.177233,-0.497228
0.004915,0.193214,-0.607790
0.004920,0.189952,-0.659646
0.004925,0.171036,-0.647579
0.004930,0.134508,-0.572892
0.004935,0.088848,-0.443414
0.004940,0.031448,-0.268929
0.004945,-0.024649,-0.071613
0.004950,-0.081397,0.130921
0.004955,-0.130645,0.324322
0.004960,-0.160324,0.481196
0.004965,-0.179892,0.590454
0.004970,-0.179892,0.641658
0.004975,-0.159997,0.629265
0.004980,-0.124122,0.554578
0.004985,-0.077158,0.424122
0.004990,-0.022040,0.253224
0.004995,0.038296,0.054604
0.005000,0.095045,-0.149235
0.005005,0.139074,-0.340027
0.005010,0.174624,-0.496249
0.005015,0.195497,-0.608116
0.005020,0.190605,-0.660298
0.005025,0.168753,-0.646927
0.005030,0.137443,-0.573871
0.005035,0.087218,-0.441131
0.005040,0.028512,-0.270886
0.005045,-0.024975,-0.071939
0.005050,-0.082376,0.132551
0.005055,-0.131949,0.323996
0.005060,-0.163585,0.480870
0.005065,-0.178261,0.590128
0.005070,-0.180218,0.642636
0.005075,-0.159997,0.628612
0.005080,-0.122165,0.556209
0.005085,-0.076179,0.423796
0.005090,-0.020735,0.252245
0.005095,0.036340,0.054604
0.005100,0.094719,-0.148909
0.005105,0.139400,-0.339375
0.005110,0.172014,-0.497228
0.005115,0.191583,-0.607463
0.005120,0.192887,-0.659646
0.005125,0.171362,-0.647905
0.005130,0.136139,-0.572566
0.005135,0.089175,-0.442762
0.005140,0.031448,-0.269907
0.005145,-0.026280,-0.071613
0.005150,-0.083028,0.132551
0.005155,-0.130319,0.323670
0.005160,-0.162607,0.480218
0.005165,-0.181197,0.589802
0.005170,-0.178588,0.641658
0.005175,-0.159345,0.629917
0.005180,-0.124774,0.554904
0.005185,-0.074875,0.424774
0.005190,-0.018452,0.253550
0.005195,0.039601,0.054604
0.005200,0.092762,-0.148583
0.005205,0.144292,-0.340354
0.005210,0.169731,-0.499511
0.005215,0.190278,-0.606811
0.005220,0.192235,-0.659320
0.005225,0.172014,-0.647253
0.005230,0.134508,-0.572240
0.005235,0.089501,-0.442436
0.005240,0.033404,-0.269907
0.005245,-0.026280,-0.072265
0.005250,-0.081724,0.132551
0.005255,-0.127709,0.324649
0.005260,-0.164563,0.480544
0.005265,-0.180871,0.589802
0.005270,-0.177609,0.641332
0.005275,-0.160650,0.630243
0.005280,-0.123470,0.554904
0.005285,-0.077158,0.424774
0.005290,-0.019431,0.251919
0.005295,0.037318,0.054930
0.005300,0.093741,-0.148909
0.005305,0.140705,-0.340027
0.005310,0.174950,-0.497228
0.005315,0.193540,-0.608442
0.005320,0.189300,-0.659646
0.005325,0.172014,-0.647579
0.005330,0.135487,-0.571914
0.005335,0.085913,-0.442110
0.005340,0.031121,-0.269907
0.005345,-0.027258,-0.072265
0.005350,-0.083028,0.131899
0.005355,-0.132602,0.324322
0.005360,-0.162607,0.480544
0.005365,-0.179566,0.590128
0.005370,-0.181849,0.640680
0.005375,-0.158693,0.629591
0.005380,-0.124448,0.554252
0.005385,-0.078462,0.425426
0.005390,-0.021061,0.252571
0.005395,0.039601,0.055256
0.005400,0.093741,-0.149561
0.005405,0.140053,-0.340354
0.005410,0.174950,-0.496901
0.005415,0.191257,-0.607137
0.005420,0.190278,-0.658994
0.005425,0.168753,-0.647253
0.005430,0.137443,-0.572892
0.005435,0.086892,-0.443088
0.005440,0.028838,-0.269907
0.005445,-0.027258,-0.071939
0.005450,-0.081397,0.131573
0.005455,-0.129014,0.323996
0.005460,-0.164890,0.481196
0.005465,-0.179566,0.590454
0.005470,-0.180218,0.641658
0.005475,-0.160976,0.629917
0.005480,-0.124122,0.553926
0.005485,-0.076179,0.425426
0.005490,-0.020735,0.251919
0.005495,0.037644,0.055256
0.005500,0.095371,-0.149887
0.005505,0.139400,-0.340680
0.005510,0.170384,-0.496901
0.005515,0.192235,-0.607790
0.005520,0.190931,-0.659972
0.005525,0.170710,-0.648883
0.005530,0.134508,-0.571914
0.005535,0.087218,-0.442436
0.005540,0.029817,-0.269907
0.005545,-0.030193,-0.072265
0.005550,-0.082702,0.132225
0.005555,-0.130645,0.324649
0.005560,-0.165216,0.480544
0.005565,-0.180871,0.590454
0.005570,-0.177609,0.641006
0.005575,-0.162607,0.629917
0.005580,-0.128036,0.554578
0.005585,-0.077810,0.425100
0.005590,-0.021714,0.252245
0.005595,0.036992,0.054604
0.005600,0.094719,-0.148909
0.005605,0.141031,-0.340027
0.005610,0.172341,-0.497228
0.005615,0.189626,-0.607463
0.005620,0.191257,-0.658994
0.005625,0.170384,-0.647905
0.005630,0.134834,-0.571588
0.005635,0.087218,-0.443088
0.005640,0.031121,-0.269255
0.005645,-0.027258,-0.071613
0.005650,-0.084333,0.132877
0.005655,-0.129340,0.323018
0.005660,-0.164237,0.480870
0.005665,-0.181849,0.589802
0.005670,-0.180544,0.641332
0.005675,-0.159345,0.629591
0.005680,-0.125426,0.553926
0.005685,-0.079441,0.424774
0.005690,-0.017474,0.252245
0.005695,0.036340,0.054604
0.005700,0.091784,-0.149887
0.005705,0.140705,-0.339701
0.005710,0.173319,-0.496575
0.005715,0.189300,-0.607463
0.005720,0.188648,-0.658994
0.005725,0.172341,-0.647579
0.005730,0.134182,-0.572892
0.005735,0.085587,-0.443088
0.005740,0.031448,-0.269907
0.005745,-0.029541,-0.071939
0.005750,-0.084985,0.131573
0.005755,-0.131297,0.323670
0.005760,-0.163259,0.480544
0.005765,-0.181849,0.589802
0.005770,-0.181197,0.641658
0.005775,-0.160324,0.629265
0.005780,-0.125100,0.554252
0.005785,-0.078136,0.423796
0.005790,-0.021714,0.251919
0.005795,0.039275,0.053951
0.005800,0.091784,-0.149887
0.005805,0.138748,-0.340027
0.005810,0.173319,-0.496901
0.005815,0.190931,-0.608116
0.005820,0.188322,-0.658994
0.005825,0.170384,-0.647905
0.005830,0.137117,-0.572566
0.005835,0.084935,-0.442762
0.005840,0.027860,-0.269255
0.005845,-0.026280,-0.071287
0.005850,-0.083354,0.131899
0.005855,-0.131949,0.323996
0.005860,-0.162933,0.481849
0.005865,-0.180544,0.590128
0.005870,-0.180544,0.641332
0.005875,-0.161954,0.629591
0.005880,-0.123470,0.554578
0.005885,-0.078462,0.424448
0.005890,-0.021714,0.251919
0.005895,0.037644,0.052647
0.005900,0.094393,-0.148583
0.005905,0.139726,-0.340027
0.005910,0.171362,-0.497554
0.005915,0.192235,-0.608442
0.005920,0.189300,-0.659646
0.005925,0.169731,-0.647905
0.005930,0.135160,-0.571914
0.005935,0.087218,-0.442436
0.005940,0.031448,-0.268929
0.005945,-0.031172,-0.072265
0.005950,-0.080419,0.132551
0.005955,-0.131623,0.323996
0.005960,-0.166520,0.480870
0.005965,-0.181849,0.590128
0.005970,-0.181849,0.641658
0.005975,-0.161302,0.629591
0.005980,-0.127057,0.554252
0.005985,-0.075853,0.425100
0.005990,-0.021714,0.252245
0.005995,0.036014,0.054277
0.006000,0.092762,-0.149235
0.006005,0.140053,-0.341006
0.006010,0.172993,-0.496575
0.006015,0.188648,-0.608116
0.006020,0.191257,-0.658994
0.006025,0.169405,-0.648231
0.006030,0.133204,-0.571588
0.006035,0.086565,-0.442762
0.006040,0.031121,-0.268603
0.006045,-0.031498,-0.070961
0.006050,-0.083354,0.132551
0.006055,-0.128688,0.323670
0.006060,-0.166846,0.481196
0.006065,-0.182501,0.590128
0.006070,-0.180218,0.641658
0.006075,-0.161954,0.629917
0.006080,-0.124448,0.554578
0.006085,-0.078136,0.425100
0.006090,-0.019757,0.251919
0.006095,0.039601,0.054604
0.006100,0.090479,-0.150213
0.006105,0.140379,-0.340354
0.006110,0.173319,-0.496901
0.006115,0.188974,-0.608442
0.006120,0.190278,-0.659320
0.006125,0.171688,-0.648557
0.006130,0.134834,-0.572566
0.006135,0.084935,-0.443088
0.006140,0.031121,-0.269581
0.006145,-0.028889,-0.072265
0.006150,-0.084985,0.131899
0.006155,-0.130319,0.323018
0.006160,-0.163911,0.480870
0.006165,-0.181197,0.590128
0.006170,-0.182827,0.641006
0.006175,-0.158693,0.628612
0.006180,-0.126079,0.553926
0.006185,-0.079441,0.423796
0.006190,-0.019757,0.251593
0.006195,0.036666,0.054930
0.006200,0.092110,-0.149561
0.006205,0.138748,-0.340354
0.006210,0.172667,-0.497228
0.006215,0.189626,-0.609094
0.006220,0.188322,-0.659646
0.006225,0.169405,-0.648231
0.006230,0.135487,-0.571588
0.006235,0.086239,-0.442762
0.006240,0.027534,-0.269581
0.006245,-0.027910,-0.072265
0.006250,-0.084659,0.132225
0.006255,-0.131949,0.324322
0.006260,-0.164563,0.480544
0.006265,-0.180871,0.589475
0.006270,-0.182501,0.640680
0.006275,-0.162607,0.629591
0.006280,-0.124774,0.554578
0.006285,-0.078462,0.424122
0.006290,-0.022040,0.251593
0.006295,0.036666,0.054604
0.006300,0.093088,-0.149561
0.006305,0.137443,-0.341006
0.006310,0.172341,-0.497228
0.006315,0.190931,-0.608768
0.006320,0.187669,-0.660298
0.006325,0.168101,-0.647579
0.006330,0.134182,-0.572240
0.006335,0.085913,-0.443088
0.006340,0.029165,-0.269581
0.006345,-0.028889,-0.071613
0.006350,-0.082050,0.132551
0.006355,-0.133906,0.324649
0.006360,-0.166194,0.480544
0.006365,-0.181523,0.590454
0.006370,-0.180871,0.641332
0.006375,-0.161302,0.629591
0.006380,-0.124448,0.555557
0.006385,-0.075527,0.424122
0.006390,-0.023018,0.251593
0.006395,0.035687,0.054604
0.006400,0.093088,-0.149887
0.006405,0.139074,-0.340354
0.006410,0.172014,-0.496901
0.006415,0.190278,-0.608442
0.006420,0.189626,-0.658994
0.006425,0.168753,-0.648557
0.006430,0.130594,-0.571914
0.006435,0.086565,-0.443088
0.006440,0.028838,-0.269907
0.006445,-0.030845,-0.071939
0.006450,-0.082702,0.132877
0.006455,-0.130645,0.325301
0.006460,-0.165868,0.480870
0.006465,-0.183153,0.590128
0.006470,-0.180218,0.640353
0.006475,-0.161954,0.628939
0.006480,-0.127709,0.554904
0.006485,-0.077484,0.424448
0.006490,-0.020409,0.251919
0.006495,0.035361,0.054604
0.006500,0.090479,-0.149235
0.006505,0.141031,-0.340680
0.006510,0.172014,-0.497880
0.006515,0.190278,-0.608768
0.006520,0.190278,-0.659972
0.006525,0.170058,-0.647579
0.006530,0.134508,-0.571588
0.006535,0.083956,-0.442762
0.006540,0.031448,-0.269581
0.006545,-0.028562,-0.072265
0.006550,-0.084007,0.132877
0.006555,-0.132275,0.324322
0.006560,-0.161628,0.481523
0.006565,-0.181523,0.589802
0.006570,-0.183806,0.641332
0.006575,-0.159345,0.629917
0.006580,-0.126079,0.554252
0.006585,-0.079441,0.425100
0.006590,-0.020735,0.251919
0.006595,0.040253,0.054930
0.006600,0.091784,-0.150213
0.006605,0.138422,-0.340354
0.006610,0.174950,-0.497554
0.006615,0.190278,-0.607790
0.006620,0.187669,-0.660624
0.006625,0.170710,-0.648883
0.006630,0.134834,-0.572892
0.006635,0.085913,-0.442110
0.006640,0.029491,-0.268929
0.006645,-0.026932,-0.071939
0.006650,-0.084007,0.132877
0.006655,-0.132602,0.324322
0.006660,-0.163259,0.481196
0.006665,-0.180544,0.590454
0.006670,-0.181197,0.641658
0.006675,-0.162933,0.628612
0.006680,-0.122491,0.554252
0.006685,-0.077810,0.423796
0.006690,-0.022366,0.252571
0.006695,0.037644,0.054277
0.006700,0.093741,-0.149887
0.006705,0.139400,-0.340027
0.006710,0.172014,-0.497880
0.006715,0.191257,-0.608116
0.006720,0.187343,-0.660298
0.006725,0.168101,-0.647253
0.006730,0.135487,-0.572240
0.006735,0.085913,-0.442110
0.006740,0.028512,-0.269581
0.006745,-0.029215,-0.071613
0.006750,-0.082702,0.131573
0.006755,-0.132928,0.324649
0.006760,-0.168151,0.480870
0.006765,-0.180544,0.590128
0.006770,-0.181849,0.641006
0.006775,-0.163259,0.628612
0.006780,-0.125100,0.553600
0.006785,-0.077484,0.424774
0.006790,-0.023344,0.251919
0.006795,0.034709,0.053625
0.006800,0.093088,-0.149887
0.006805,0.138748,-0.340680
0.006810,0.172014,-0.497554
0.006815,0.189626,-0.608768
0.006820,0.189952,-0.659320
0.006825,0.168427,-0.648231
0.006830,0.131899,-0.572240
0.006835,0.087218,-0.443088
0.006840,0.028838,-0.268929
0.006845,-0.030519,-0.071287
0.006850,-0.084985,0.132225
0.006855,-0.130645,0.324322
0.006860,-0.164563,0.480870
0.006865,-0.184784,0.589475
0.006870,-0.178914,0.641332
0.006875,-0.162607,0.629917
0.006880,-0.126731,0.553600
0.006885,-0.078136,0.424122
0.006890,-0.021714,0.251267
0.006895,0.036340,0.054277
0.006900,0.090805,-0.149561
0.006905,0.141031,-0.340680
0.006910,0.172341,-0.497554
0.006915,0.187995,-0.608116
0.006920,0.187995,-0.659646
0.006925,0.167448,-0.648557
0.006930,0.128312,-0.572240
0.006935,0.085913,-0.442436
0.006940,0.029817,-0.269255
0.006945,-0.029867,-0.071613
0.006950,-0.084659,0.132551
0.006955,-0.131949,0.323670
0.006960,-0.166194,0.480870
0.006965,-0.182827,0.590454
0.006970,-0.182175,0.641658
0.006975,-0.161954,0.629591
0.006980,-0.124774,0.554578
0.006985,-0.079114,0.424448
0.006990,-0.022366,0.251593
0.006995,0.036014,0.053625
0.007000,0.091458,-0.149561
0.007005,0.138748,-0.340354
0.007010,0.172341,-0.498206
0.007015,0.189300,-0.607790
0.007020,0.186365,-0.659972
0.007025,0.170710,-0.647579
0.007030,0.131899,-0.572566
0.007035,0.084282,-0.441784
0.007040,0.029817,-0.268929
0.007045,-0.028562,-0.071613
0.007050,-0.086942,0.131899
0.007055,-0.132275,0.324322
0.007060,-0.165216,0.481523
0.007065,-0.182827,0.591106
0.007070,-0.182175,0.642310
0.007075,-0.161628,0.629591
0.007080,-0.125753,0.553926
0.007085,-0.079441,0.423469
0.007090,-0.023670,0.251267
0.007095,0.038296,0.054930
0.007100,0.092436,-0.149887
0.007105,0.136465,-0.341006
0.007110,0.173971,-0.497880
0.007115,0.192235,-0.607463
0.007120,0.187669,-0.659320
0.007125,0.168101,-0.648557
0.007130,0.135813,-0.571588
0.007135,0.085913,-0.441784
0.007140,0.028512,-0.268929
0.007145,-0.030845,-0.071613
0.007150,-0.082050,0.132225
0.007155,-0.131297,0.324649
0.007160,-0.166194,0.481849
0.007165,-0.179240,0.590454
0.007170,-0.180871,0.641984
0.007175,-0.163911,0.629591
0.007180,-0.126079,0.554578
0.007185,-0.077484,0.424774
0.007190,-0.023018,0.251593
0.007195,0.036992,0.053299
0.007200,0.093088,-0.150213
0.007205,0.139400,-0.341006
0.007210,0.170710,-0.497554
0.007215,0.190605,-0.607790
0.007220,0.187995,-0.660298
0.007225,0.170710,-0.647905
0.007230,0.132877,-0.571914
0.007235,0.087544,-0.442436
0.007240,0.028838,-0.269255
0.007245,-0.031172,-0.072265
0.007250,-0.083028,0.131573
0.007255,-0.130645,0.323670
0.007260,-0.165542,0.481523
0.007265,-0.181197,0.590780
0.007270,-0.179240,0.641984
0.007275,-0.163585,0.629265
0.007280,-0.127057,0.553926
0.007285,-0.075853,0.425100
0.007290,-0.021714,0.250615
0.007295,0.036340,0.053625
0.007300,0.094067,-0.149235
0.007305,0.141031,-0.340680
0.007310,0.172014,-0.498206
0.007315,0.186039,-0.608116
0.007320,0.190931,-0.659646
0.007325,0.168101,-0.647905
0.007330,0.133204,-0.570936
0.007335,0.086565,-0.441457
0.007340,0.030469,-0.268929
0.007345,-0.028236,-0.072592
0.007350,-0.086290,0.133204
0.007355,-0.129666,0.323344
0.007360,-0.164890,0.481849
0.007365,-0.181523,0.590128
0.007370,-0.181849,0.641984
0.007375,-0.159345,0.629591
0.007380,-0.127709,0.554904
0.007385,-0.080419,0.425100
0.007390,-0.020409,0.251593
0.007395,0.036992,0.053299
0.007400,0.090479,-0.150213
0.007405,0.142662,-0.341006
0.007410,0.174624,-0.497554
0.007415,0.189300,-0.607790
0.007420,0.187669,-0.659972
0.007425,0.171036,-0.647253
0.007430,0.131573,-0.572240
0.007435,0.082326,-0.442762
0.007440,0.033731,-0.269581
0.007445,-0.029541,-0.071613
0.007450,-0.088899,0.132877
0.007455,-0.138472,0.323344
0.007460,-0.161954,0.481196
0.007465,-0.182827,0.590128
0.007470,-0.184784,0.640680
0.007475,-0.157714,0.629591
0.007480,-0.127057,0.554252
0.007485,-0.081724,0.425100
0.007490,-0.026280,0.249636
0.007495,0.039601,0.053299
0.007500,0.091131,-0.150539
0.007505,0.134508,-0.341332
0.007510,0.176254,-0.498206
0.007515,0.190931,-0.608116
0.007520,0.183756,-0.659646
0.007525,0.165165,-0.648231
0.007530,0.136139,-0.572240
0.007535,0.082326,-0.442436
0.007540,0.023946,-0.269581
0.007545,-0.023670,-0.071939
0.007550,-0.084007,0.132551
0.007555,-0.134885,0.323996
0.007560,-0.166194,0.481196
0.007565,-0.178914,0.590128
0.007570,-0.182827,0.641658
0.007575,-0.167499,0.629591
0.007580,-0.120860,0.553926
0.007585,-0.077810,0.423796
0.007590,-0.025627,0.250941
0.007595,0.035361,0.053951
0.007600,0.097654,-0.150539
0.007605,0.135813,-0.340680
0.007610,0.165492,-0.498532
0.007615,0.197127,-0.608116
0.007620,0.188648,-0.659972
0.007625,0.165818,-0.647905
0.007630,0.133530,-0.572566
0.007635,0.087870,-0.442762
0.007640,0.025903,-0.268929
0.007645,-0.034107,-0.071939
0.007650,-0.079114,0.132877
0.007655,-0.133254,0.323996
0.007660,-0.169782,0.481523
0.007665,-0.184132,0.589475
0.007670,-0.178588,0.641006
0.007675,-0.165216,0.628939
0.007680,-0.131949,0.553926
0.007685,-0.071287,0.424122
0.007690,-0.024323,0.251267
0.007695,0.032100,0.053951
0.007700,0.093088,-0.151192
0.007705,0.140053,-0.340027
0.007710,0.169405,-0.498532
0.007715,0.185060,-0.608442
0.007720,0.193214,-0.659646
0.007725,0.167775,-0.648231
0.007730,0.128964,-0.572892
0.007735,0.087218,-0.442436
0.007740,0.030469,-0.269255
0.007745,-0.033455,-0.072592
0.007750,-0.090203,0.131899
0.007755,-0.126731,0.323670
0.007760,-0.167173,0.479892
0.007765,-0.187393,0.590128
0.007770,-0.177609,0.640680
0.007775,-0.161302,0.628939
0.007780,-0.130319,0.553274
0.007785,-0.082050,0.424122
0.007790,-0.015843,0.250615
0.007795,0.034383,0.053625
0.007800,0.087870,-0.150213
0.007805,0.144619,-0.340680
0.007810,0.174297,-0.497880
0.007815,0.186691,-0.608442
0.007820,0.184734,-0.659972
0.007825,0.175276,-0.648557
0.007830,0.132225,-0.571914
0.007835,0.081021,-0.443088
0.007840,0.034057,-0.267624
0.007845,-0.027910,-0.071939
0.007850,-0.087594,0.132551
0.007855,-0.133580,0.324649
0.007860,-0.160324,0.481523
0.007865,-0.184784,0.590128
0.007870,-0.185436,0.641658
0.007875,-0.156410,0.628286
0.007880,-0.126079,0.553600
0.007885,-0.080745,0.423796
0.007890,-0.022692,0.250941
0.007895,0.040906,0.053951
0.007900,0.091458,-0.150213
0.007905,0.133856,-0.340680
0.007910,0.177885,-0.497880
0.007915,0.190278,-0.608768
0.007920,0.184408,-0.660298
0.007925,0.166796,-0.648883
0.007930,0.138748,-0.571914
0.007935,0.082652,-0.442436
0.007940,0.022642,-0.269907
0.007945,-0.022366,-0.071613
0.007950,-0.085311,0.132225
0.007955,-0.136515,0.323996
0.007960,-0.165542,0.481849
0.007965,-0.178588,0.589802
0.007970,-0.184458,0.640353
0.007975,-0.166194,0.629917
0.007980,-0.119882,0.553600
0.007985,-0.077810,0.424774
0.007990,-0.026932,0.251919
0.007995,0.038949,0.053299
0.008000,0.095697,-0.149561
0.008005,0.137117,-0.340354
0.008010,0.166796,-0.498206
0.008015,0.198106,-0.609094
0.008020,0.189626,-0.659972
0.008025,0.163209,-0.648231
0.008030,0.137117,-0.572892
0.008035,0.087870,-0.442436
0.008040,0.025903,-0.268929
0.008045,-0.033455,-0.071287
0.008050,-0.078136,0.133204
0.008055,-0.133580,0.323996
0.008060,-0.168477,0.480870
0.008065,-0.180218,0.589475
0.008070,-0.178588,0.641658
0.008075,-0.163585,0.628939
0.008080,-0.129340,0.553926
0.008085,-0.071939,0.422491
0.008090,-0.022692,0.251593
0.008095,0.032100,0.053625
0.008100,0.097328,-0.149561
0.008105,0.142009,-0.340354
0.008110,0.168753,-0.498206
0.008115,0.188322,-0.608768
0.008120,0.195497,-0.660298
0.008125,0.166144,-0.648231
0.008130,0.129942,-0.572566
0.008135,0.089501,-0.442436
0.008140,0.030143,-0.269255
0.008145,-0.030845,-0.071287
0.008150,-0.087268,0.132551
0.008155,-0.125753,0.325301
0.008160,-0.167825,0.481523
0.008165,-0.187393,0.589802
0.008170,-0.177283,0.641658
0.008175,-0.158693,0.628612
0.008180,-0.130645,0.553926
0.008185,-0.079441,0.424448
0.008190,-0.015191,0.251267
0.008195,0.034383,0.053625
0.008200,0.088522,-0.150539
0.008205,0.144945,-0.341658
0.008210,0.172667,-0.498206
0.008215,0.186365,-0.609094
0.008220,0.187995,-0.659646
0.008225,0.173319,-0.648557
0.008230,0.131899,-0.572566
0.008235,0.079390,-0.442762
0.008240,0.035687,-0.268929
0.008245,-0.024649,-0.071287
0.008250,-0.090855,0.132877
0.008255,-0.129992,0.323670
0.008260,-0.163259,0.480870
0.008265,-0.186089,0.589802
0.008270,-0.184784,0.642310
0.008275,-0.154779,0.630243
0.008280,-0.125100,0.554252
0.008285,-0.082702,0.424122
0.008290,-0.021387,0.250941
0.008295,0.040253,0.053951
0.008300,0.090479,-0.150213
0.008305,0.134508,-0.340027
0.008310,0.179842,-0.498532
0.008315,0.189952,-0.608116
0.008320,0.184082,-0.659972
0.008325,0.171036,-0.647253
0.008330,0.135813,-0.572566
0.008335,0.083304,-0.442762
0.008340,0.023946,-0.269255
0.008345,-0.022366,-0.070961
0.008350,-0.085311,0.132551
0.008355,-0.135863,0.323996
0.008360,-0.162607,0.479892
0.008365,-0.179240,0.589802
0.008370,-0.183806,0.640353
0.008375,-0.165868,0.629265
0.008380,-0.119556,0.553600
0.008385,-0.079114,0.423796
0.008390,-0.024649,0.251267
0.008395,0.039927,0.053951
0.008400,0.096676,-0.150213
0.008405,0.137443,-0.340354
0.008410,0.169405,-0.497554
0.008415,0.197780,-0.609094
0.008420,0.187343,-0.659320
0.008425,0.165165,-0.648557
0.008430,0.139074,-0.571588
0.008435,0.087870,-0.443088
0.008440,0.027208,-0.269581
0.008445,-0.031498,-0.071613
0.008450,-0.079441,0.132225
0.008455,-0.138146,0.323996
0.008460,-0.176305,0.480870
0.008465,-0.177609,0.591106
0.008470,-0.175000,0.641658
0.008475,-0.166194,0.628939
0.008480,-0.128362,0.553926
0.008485,-0.071613,0.423796
0.008490,-0.024649,0.251267
0.008495,0.034383,0.053299
0.008500,0.100916,-0.151192
0.008505,0.140705,-0.341658
0.008510,0.167775,-0.497554
0.008515,0.190278,-0.607790
0.008520,0.196149,-0.659972
0.008525,0.169405,-0.647253
0.008530,0.129290,-0.571588
0.008535,0.092762,-0.442436
0.008540,0.032100,-0.268603
0.008545,-0.032150,-0.070961
0.008550,-0.083354,0.132225
0.008555,-0.126079,0.324322
0.008560,-0.167173,0.481523
0.008565,-0.186089,0.589475
0.008570,-0.172391,0.641332
0.008575,-0.160324,0.628939
0.008580,-0.128362,0.554252
0.008585,-0.075201,0.424122
0.008590,-0.016495,0.250941
0.008595,0.036014,0.053299
0.008600,0.089501,-0.150866
0.008605,0.149185,-0.341658
0.008610,0.172993,-0.497228
0.008615,0.188974,-0.609420
0.008620,0.192235,-0.660624
0.008625,0.173319,-0.647905
0.008630,0.133204,-0.572566
0.008635,0.082326,-0.442762
0.008640,0.037644,-0.269255
0.008645,-0.026280,-0.071939
0.008650,-0.087268,0.132225
0.008655,-0.127383,0.323996
0.008660,-0.160976,0.481523
0.008665,-0.184458,0.590454
0.008670,-0.182501,0.641006
0.008675,-0.152822,0.630243
0.008680,-0.125426,0.553600
0.008685,-0.081071,0.423469
0.008690,-0.017474,0.250615
0.008695,0.039275,0.052973
0.008700,0.091784,-0.150213
0.008705,0.136791,-0.341006
0.008710,0.179842,-0.498532
0.008715,0.189952,-0.609420
0.008720,0.187017,-0.659320
0.008725,0.175602,-0.648231
0.008730,0.137117,-0.572240
0.008735,0.080695,-0.442436
0.008740,0.029165,-0.267624
0.008745,-0.021061,-0.071939
0.008750,-0.084333,0.133530
0.008755,-0.133580,0.323670
0.008760,-0.157388,0.481523
0.008765,-0.180544,0.589802
0.008770,-0.182827,0.641006
0.008775,-0.161302,0.629265
0.008780,-0.120534,0.553926
0.008785,-0.077158,0.423469
0.008790,-0.025301,0.250941
0.008795,0.043515,0.053299
0.008800,0.095697,-0.149887
0.008805,0.137443,-0.341006
0.008810,0.172993,-0.498532
0.008815,0.195497,-0.608768
0.008820,0.188974,-0.660298
0.008825,0.165492,-0.647905
0.008830,0.142988,-0.572240
0.008835,0.087218,-0.442110
0.008840,0.026555,-0.269907
0.008845,-0.026280,-0.071613
0.008850,-0.079441,0.132225
0.008855,-0.131623,0.325301
0.008860,-0.166846,0.481523
0.008865,-0.175326,0.589475
0.008870,-0.178914,0.641006
0.008875,-0.163259,0.629591
0.008880,-0.123470,0.553600
0.008885,-0.071613,0.423469
0.008890,-0.023997,0.251593
0.008895,0.033731,0.052321
0.008900,0.101568,-0.151518
0.008905,0.140053,-0.341332
0.008910,0.170710,-0.498858
0.008915,0.194518,-0.609094
0.008920,0.192235,-0.660624
0.008925,0.169405,-0.648231
0.008930,0.130921,-0.572240
0.008935,0.094393,-0.441131
0.008940,0.031121,-0.269255
0.008945,-0.033128,-0.072592
0.008950,-0.082050,0.133204
0.008955,-0.124774,0.323996
0.008960,-0.165868,0.480544
0.008965,-0.184784,0.591106
0.008970,-0.171086,0.641006
0.008975,-0.159345,0.628939
0.008980,-0.128362,0.554252
0.008985,-0.072918,0.423469
0.008990,-0.017800,0.250941
0.008995,0.036666,0.053625
0.009000,0.091131,-0.149887
0.009005,0.147228,-0.340354
0.009010,0.175276,-0.499184
0.009015,0.188322,-0.608116
0.009020,0.194844,-0.660951
0.009025,0.174950,-0.647905
0.009030,0.131247,-0.571262
0.009035,0.085913,-0.441457
0.009040,0.039275,-0.269581
0.009045,-0.028236,-0.071939
0.009050,-0.087268,0.132551
0.009055,-0.123470,0.324649
0.009060,-0.161628,0.481849
0.009065,-0.183806,0.589802
0.009070,-0.181849,0.641658
0.009075,-0.154779,0.628939
0.009080,-0.124122,0.552948
0.009085,-0.081071,0.424448
0.009090,-0.014865,0.250615
0.009095,0.040906,0.052647
0.009100,0.090153,-0.151192
0.009105,0.140053,-0.341332
0.009110,0.179516,-0.498206
0.009115,0.187995,-0.608442
0.009120,0.185386,-0.659972
0.009125,0.179190,-0.647253
0.009130,0.134834,-0.572240
0.009135,0.083304,-0.441784
0.009140,0.032752,-0.269255
0.009145,-0.024975,-0.070961
0.009150,-0.085311,0.132877
0.009155,-0.133906,0.323670
0.009160,-0.157388,0.481849
0.009165,-0.181849,0.590128
0.009170,-0.182827,0.640680
0.009175,-0.159997,0.628939
0.009180,-0.119230,0.554252
0.009185,-0.078462,0.424122
0.009190,-0.024975,0.250941
0.009195,0.046776,0.052647
0.009200,0.093741,-0.151518
0.009205,0.135487,-0.341332
0.009210,0.176254,-0.498206
0.009215,0.194192,-0.609420
0.009220,0.186365,-0.660298
0.009225,0.167448,-0.648883
0.009230,0.142662,-0.572566
0.009235,0.086239,-0.441784
0.009240,0.027534,-0.268929
0.009245,-0.023997,-0.071287
0.009250,-0.081071,0.131899
0.009255,-0.131297,0.324322
0.009260,-0.167825,0.480544
0.009265,-0.173695,0.590454
0.009270,-0.179892,0.641006
0.009275,-0.163585,0.629265
0.009280,-0.120208,0.552948
0.009285,-0.072265,0.422817
0.009290,-0.021714,0.250288
0.009295,0.034383,0.052647
0.009300,0.100916,-0.151518
0.009305,0.140053,-0.341332
0.009310,0.170384,-0.498532
0.009315,0.196801,-0.608116
0.009320,0.190605,-0.660298
0.009325,0.167775,-0.648231
0.009330,0.133530,-0.572566
0.009335,0.093088,-0.442436
0.009340,0.029817,-0.268603
0.009345,-0.032150,-0.071613
0.009350,-0.076831,0.133204
0.009355,-0.129014,0.324322
0.009360,-0.166846,0.481523
0.009365,-0.181849,0.589802
0.009370,-0.174674,0.641658
0.009375,-0.161954,0.628286
0.009380,-0.128362,0.554252
0.009385,-0.069004,0.423469
0.009390,-0.018126,0.250288
0.009395,0.035035,0.052647
0.009400,0.095045,-0.150539
0.009405,0.144619,-0.341658
0.009410,0.171362,-0.497228
0.009415,0.187017,-0.609420
0.009420,0.198432,-0.659972
0.009425,0.170710,-0.647905
0.009430,0.131899,-0.571914
0.009435,0.088848,-0.441784
0.009440,0.033731,-0.268603
0.009445,-0.029215,-0.070961
0.009450,-0.086290,0.132225
0.009455,-0.124448,0.324975
0.009460,-0.163911,0.481523
0.009465,-0.183480,0.589802
0.009470,-0.178261,0.640680
0.009475,-0.157388,0.628939
0.009480,-0.125100,0.553926
0.009485,-0.081071,0.422817
0.009490,-0.014212,0.250615
0.009495,0.039927,0.053625
0.009500,0.090805,-0.150866
0.009505,0.144619,-0.340680
0.009510,0.177233,-0.498858
0.009515,0.188322,-0.609094
0.009520,0.188322,-0.660298
0.009525,0.175276,-0.648557
0.009530,0.133204,-0.571588
0.009535,0.085261,-0.442436
0.009540,0.035035,-0.268929
0.009545,-0.024975,-0.071613
0.009550,-0.085637,0.132551
0.009555,-0.134885,0.324975
0.009560,-0.160650,0.481523
0.009565,-0.180544,0.589475
0.009570,-0.184458,0.641658
0.009575,-0.156410,0.628612
0.009580,-0.121187,0.552948
0.009585,-0.078462,0.423796
0.009590,-0.024323,0.250288
0.009595,0.042536,0.052647
0.009600,0.091784,-0.150866
0.009605,0.136791,-0.341984
0.009610,0.179842,-0.498206
0.009615,0.192887,-0.609094
0.009620,0.186691,-0.660298
0.009625,0.169405,-0.648231
0.009630,0.141031,-0.571588
0.009635,0.084609,-0.441457
0.009640,0.027860,-0.268929
0.009645,-0.021387,-0.071613
0.009650,-0.083028,0.133204
0.009655,-0.133580,0.324322
0.009660,-0.163911,0.481196
0.009665,-0.178588,0.589475
0.009670,-0.182501,0.640680
0.009675,-0.162933,0.627960
0.009680,-0.118904,0.553600
0.009685,-0.075527,0.422817
0.009690,-0.022366,0.250941
0.009695,0.039275,0.051994
0.009700,0.097002,-0.151518
0.009705,0.136465,-0.342310
0.009710,0.173971,-0.498858
0.009715,0.196149,-0.608116
0.009720,0.189626,-0.660298
0.009725,0.167122,-0.647579
0.009730,0.137443,-0.571588
0.009735,0.088522,-0.442762
0.009740,0.027208,-0.268929
0.009745,-0.028236,-0.070309
0.009750,-0.078136,0.133530
0.009755,-0.132928,0.324322
0.009760,-0.166846,0.480544
0.009765,-0.177935,0.590454
0.009770,-0.179566,0.642310
0.009775,-0.162607,0.629917
0.009780,-0.127709,0.554578
0.009785,-0.072918,0.423143
0.009790,-0.019104,0.250615
0.009795,0.035035,0.052321
0.009800,0.097328,-0.150866
0.009805,0.143314,-0.341984
0.009810,0.170384,-0.499837
0.009815,0.186691,-0.607790
0.009820,0.195497,-0.660298
0.009825,0.169079,-0.647579
0.009830,0.131899,-0.572566
0.009835,0.091458,-0.442110
0.009840,0.031448,-0.268603
0.009845,-0.029541,-0.070635
0.009850,-0.088899,0.133856
0.009855,-0.125100,0.325301
0.009860,-0.165216,0.481196
0.009865,-0.186415,0.589802
0.009870,-0.176631,0.641658
0.009875,-0.159019,0.628939
0.009880,-0.128688,0.553600
0.009885,-0.079767,0.424448
0.009890,-0.012908,0.251267
0.009895,0.033404,0.052973
0.009900,0.088522,-0.150866
0.009905,0.144619,-0.341658
0.009910,0.175602,-0.499184
0.009915,0.187343,-0.608768
0.009920,0.185060,-0.660298
0.009925,0.176580,-0.647579
0.009930,0.133856,-0.571914
0.009935,0.080043,-0.442436
0.009940,0.035361,-0.268603
0.009945,-0.024975,-0.071613
0.009950,-0.089225,0.133530
0.009955,-0.133580,0.325301
0.009960,-0.155105,0.481523
0.009965,-0.185436,0.590128
0.009970,-0.184784,0.641984
0.009975,-0.155105,0.628286
0.009980,-0.122817,0.553600
0.009985,-0.080745,0.423796
0.009990,-0.022040,0.250615
0.009995,0.047428,0.053625
